#
# SDSS z filter - Y4KCam Filter Set
# Factory Raw Transmission Curve
# 2006 Feb 22 [rwp/osu]
#
#lam[nm] Tx 
815     0.000   
816     0.000   
817     0.001   
818     0.002   
819     0.003   
820     0.004   
821     0.004   
822     0.005   
823     0.006   
824     0.008   
825     0.010   
826     0.012   
827     0.014   
828     0.018   
829     0.023   
830     0.032   
831     0.045   
832     0.063   
833     0.085   
834     0.114   
835     0.154   
836     0.210   
837     0.288   
838     0.394   
839     0.507   
840     0.612   
841     0.710   
842     0.801   
843     0.867   
844     0.905   
845     0.924   
846     0.931   
847     0.933   
848     0.933   
849     0.931   
850     0.931   
851     0.935   
852     0.937   
853     0.937   
854     0.939   
855     0.944   
856     0.948   
857     0.949   
858     0.952   
859     0.955   
860     0.956   
861     0.955   
862     0.954   
863     0.953   
864     0.948   
865     0.946   
866     0.947   
867     0.948   
868     0.946   
869     0.946   
870     0.947   
871     0.947   
872     0.946   
873     0.943   
874     0.940   
875     0.939   
876     0.942   
877     0.949   
878     0.953   
879     0.952   
880     0.947   
881     0.940   
882     0.937   
883     0.936   
884     0.935   
885     0.933   
886     0.932   
887     0.932   
888     0.931   
889     0.929   
890     0.927   
891     0.924   
892     0.922   
893     0.920   
894     0.918   
895     0.917   
896     0.915   
897     0.914   
898     0.913   
899     0.913   
900     0.912   
901     0.910   
902     0.908   
903     0.906   
904     0.907   
905     0.908   
906     0.908   
907     0.909   
908     0.911   
909     0.914   
910     0.916   
911     0.917   
912     0.917   
913     0.919   
914     0.921   
915     0.924   
916     0.926   
917     0.928   
918     0.930   
919     0.931   
920     0.931   
921     0.931   
922     0.930   
923     0.929   
924     0.926   
925     0.924   
926     0.922   
927     0.920   
928     0.918   
929     0.916   
930     0.915   
931     0.913   
932     0.910   
933     0.907   
934     0.902   
935     0.900   
936     0.900   
937     0.902   
938     0.903   
939     0.905   
940     0.907   
941     0.908   
942     0.908   
943     0.909   
944     0.910   
945     0.911   
946     0.913   
947     0.915   
948     0.917   
949     0.919   
950     0.919   
951     0.919   
952     0.918   
953     0.917   
954     0.917   
955     0.917   
956     0.918   
957     0.917   
958     0.916   
959     0.915   
960     0.913   
961     0.910   
962     0.907   
963     0.904   
964     0.902   
965     0.901   
966     0.900   
967     0.899   
968     0.899   
969     0.900   
970     0.900   
971     0.897   
972     0.893   
973     0.883   
974     0.854   
975     0.799   
976     0.716   
977     0.614   
978     0.504   
979     0.396   
980     0.296   
981     0.212   
982     0.148   
983     0.104   
984     0.076   
985     0.057   
986     0.042   
987     0.031   
988     0.024   
989     0.018   
990     0.013   
991     0.010   
992     0.009   
993     0.007   
994     0.006   
995     0.005   
996     0.004   
997     0.004   
998     0.003   
999     0.003   
1000    0.003   
1001    0.003   
1002    0.002   
1003    0.002   
1004    0.002   

