# http://www.aip.de/en/research/facilities/stella/instruments/data
# nm      Transmission
200.2      1.04E-05
200.4      1.01E-05
200.6      2.66E-05
200.8      2.61E-05
201.0      -4.20E-06
201.2      -1.11E-05
201.4      9.62E-06
201.6      1.99E-05
201.8      1.70E-05
202.0      1.11E-05
202.2      -5.30E-06
202.4      2.93E-06
202.6      9.95E-06
202.8      3.72E-05
203.0      2.81E-06
203.2      -1.53E-05
203.4      1.41E-05
203.6      6.96E-06
203.8      -1.21E-05
204.0      1.33E-05
204.2      5.69E-06
204.4      4.19E-06
204.6      1.90E-05
204.8      -1.04E-05
205.0      5.73E-06
205.2      5.59E-06
205.4      6.90E-06
205.6      2.68E-05
205.8      -3.90E-06
206.0      2.82E-06
206.2      -8.18E-06
206.4      8.21E-06
206.6      2.54E-05
206.8      -7.79E-06
207.0      4.39E-08
207.2      1.93E-05
207.4      5.88E-08
207.6      1.40E-06
207.8      -7.83E-06
208.0      -1.12E-06
208.2      2.07E-05
208.4      8.15E-06
208.6      6.76E-06
208.8      -1.31E-05
209.0      2.59E-05
209.2      1.08E-05
209.4      1.91E-05
209.6      3.49E-05
209.8      1.34E-06
210.0      2.22E-05
210.2      2.70E-05
210.4      5.43E-06
210.6      2.85E-05
210.8      2.14E-05
211.0      1.40E-06
211.2      1.43E-05
211.4      6.45E-06
211.6      3.59E-05
211.8      -1.21E-05
212.0      2.00E-05
212.2      -9.12E-06
212.4      -2.72E-05
212.6      -5.02E-06
212.8      -9.24E-06
213.0      -1.23E-06
213.2      -2.11E-05
213.4      6.57E-06
213.6      -7.66E-06
213.8      2.55E-05
214.0      8.78E-08
214.2      2.77E-06
214.4      6.68E-06
214.6      1.18E-05
214.8      1.29E-05
215.0      -1.53E-05
215.2      -1.22E-06
215.4      6.82E-06
215.6      3.87E-08
215.8      -7.94E-06
216.0      1.06E-05
216.2      -5.14E-06
216.4      9.02E-06
216.6      -3.71E-06
216.8      -3.90E-06
217.0      1.48E-05
217.2      1.73E-05
217.4      2.23E-05
217.6      1.30E-05
217.8      -1.65E-05
218.0      1.27E-05
218.2      9.60E-06
218.4      2.07E-05
218.6      7.98E-06
218.8      -2.23E-05
219.0      -5.13E-06
219.2      -1.92E-05
219.4      -1.39E-05
219.6      5.14E-08
219.8      1.00E-05
220.0      -3.85E-06
220.2      -1.19E-05
220.4      1.44E-05
220.6      1.35E-06
220.8      2.20E-05
221.0      2.30E-05
221.2      -2.40E-05
221.4      -1.23E-06
221.6      -2.47E-06
221.8      1.88E-06
222.0      1.91E-05
222.2      1.85E-05
222.4      2.63E-06
222.6      3.52E-05
222.8      5.16E-06
223.0      1.79E-05
223.2      2.29E-05
223.4      1.39E-05
223.6      -5.02E-06
223.8      -3.70E-06
224.0      3.73E-06
224.2      -1.11E-05
224.4      1.94E-05
224.6      1.18E-05
224.8      1.18E-05
225.0      1.32E-06
225.2      -1.27E-06
225.4      2.90E-08
225.6      2.95E-05
225.8      1.53E-05
226.0      3.45E-08
226.2      -1.26E-05
226.4      -3.74E-06
226.6      2.74E-05
226.8      -3.71E-06
227.0      -2.34E-05
227.2      -1.10E-05
227.4      2.64E-05
227.6      3.42E-05
227.8      1.83E-05
228.0      1.04E-05
228.2      9.08E-06
228.4      7.76E-06
228.6      1.16E-05
228.8      1.79E-05
229.0      1.30E-06
229.2      -1.24E-06
229.4      1.02E-05
229.6      2.77E-05
229.8      2.53E-06
230.0      2.42E-08
230.2      9.99E-06
230.4      3.78E-06
230.6      1.86E-05
230.8      9.92E-06
231.0      6.19E-06
231.2      3.72E-06
231.4      2.48E-06
231.6      -1.46E-05
231.8      6.10E-06
232.0      2.67E-05
232.2      -1.09E-05
232.4      4.86E-06
232.6      1.45E-05
232.8      -2.39E-06
233.0      7.22E-06
233.2      2.51E-05
233.4      4.76E-06
233.6      4.76E-06
233.8      1.18E-05
234.0      1.54E-05
234.2      2.38E-06
234.4      -5.87E-06
234.6      8.25E-06
234.8      1.41E-05
235.0      9.38E-06
235.2      2.10E-05
235.4      2.45E-05
235.6      8.15E-06
235.8      1.16E-05
236.0      1.05E-05
236.2      -9.24E-06
236.4      1.17E-06
236.6      -3.43E-06
236.8      8.09E-06
237.0      3.49E-06
237.2      1.14E-06
237.4      2.31E-06
237.6      8.04E-06
237.8      2.06E-05
238.0      1.95E-05
238.2      -5.72E-06
238.4      1.17E-06
238.6      -2.29E-06
238.8      1.83E-05
239.0      1.37E-05
239.2      -1.14E-05
239.4      1.26E-05
239.6      4.58E-06
239.8      1.71E-05
240.0      1.48E-05
240.2      4.56E-06
240.4      -5.73E-06
240.6      2.05E-05
240.8      1.94E-05
241.0      1.60E-05
241.2      -7.99E-06
241.4      1.25E-05
241.6      2.05E-05
241.8      7.99E-06
242.0      2.51E-05
242.2      9.12E-06
242.4      2.28E-06
242.6      -1.13E-06
242.8      1.48E-05
243.0      1.37E-05
243.2      4.57E-06
243.4      1.26E-05
243.6      1.49E-05
243.8      1.15E-05
244.0      -6.88E-06
244.2      3.44E-06
244.4      5.73E-06
244.6      1.84E-05
244.8      3.47E-06
245.0      2.07E-05
245.2      1.50E-05
245.4      -1.15E-06
245.6      1.16E-05
245.8      2.31E-06
246.0      5.81E-06
246.2      -3.48E-06
246.4      1.16E-05
246.6      2.09E-05
246.8      4.67E-06
247.0      -4.65E-06
247.2      9.33E-06
247.4      1.41E-05
247.6      -1.29E-05
247.8      3.52E-06
248.0      -1.17E-05
248.2      2.93E-05
248.4      2.46E-05
248.6      -5.87E-06
248.8      -2.34E-06
249.0      4.70E-06
249.2      9.39E-06
249.4      -1.65E-05
249.6      -2.35E-06
249.8      1.76E-05
250.0      -1.17E-05
250.2      2.70E-05
250.4      7.06E-06
250.6      -8.24E-06
250.8      1.17E-06
251.0      1.42E-05
251.2      3.18E-05
251.4      1.77E-05
251.6      1.65E-05
251.8      -7.09E-06
252.0      -2.37E-06
252.2      5.60E-06
252.4      2.07E-05
252.6      -8.15E-09
252.8      3.29E-06
253.0      -5.49E-06
253.2      -3.30E-06
253.4      1.32E-05
253.6      3.30E-06
253.8      3.30E-06
254.0      1.87E-05
254.2      -6.63E-06
254.4      -2.22E-06
254.6      4.44E-06
254.8      3.32E-06
255.0      -4.45E-06
255.2      -1.11E-06
255.4      7.82E-06
255.6      -1.90E-05
255.8      1.68E-05
256.0      1.57E-05
256.2      1.14E-06
256.4      1.35E-05
256.6      1.92E-05
256.8      -5.66E-06
257.0      7.94E-06
257.2      1.71E-05
257.4      2.28E-06
257.6      1.37E-05
257.8      -5.71E-06
258.0      1.83E-05
258.2      -4.59E-06
258.4      3.44E-06
258.6      -5.77E-06
258.8      8.60E-09
259.0      2.32E-06
259.2      -9.27E-06
259.4      1.51E-05
259.6      -2.34E-06
259.8      7.03E-06
260.0      2.23E-05
260.2      3.27E-06
260.4      4.38E-06
260.6      2.08E-05
260.8      3.30E-05
261.0      -9.91E-06
261.2      1.11E-06
261.4      3.33E-06
261.6      1.78E-05
261.8      1.45E-05
262.0      -1.01E-05
262.2      2.58E-05
262.4      7.86E-06
262.6      -1.24E-05
262.8      -6.79E-06
263.0      1.13E-05
263.2      1.82E-05
263.4      -1.71E-05
263.6      6.85E-06
263.8      1.26E-05
264.0      3.44E-06
264.2      -2.65E-05
264.4      1.15E-06
264.6      -6.12E-09
264.8      1.87E-05
265.0      -7.56E-06
265.2      -2.16E-06
265.4      8.70E-06
265.6      8.75E-06
265.8      -7.68E-06
266.0      -7.75E-09
266.2      3.31E-06
266.4      6.62E-06
266.6      -8.88E-06
266.8      1.00E-05
267.0      1.23E-05
267.2      -7.92E-06
267.4      2.14E-05
267.6      -2.26E-06
267.8      1.47E-05
268.0      -1.15E-06
268.2      5.71E-06
268.4      1.15E-05
268.6      1.38E-05
268.8      -2.91E-08
269.0      -3.23E-06
269.2      2.81E-05
269.4      -1.08E-05
269.6      1.85E-05
269.8      -5.48E-06
270.0      2.52E-05
270.2      3.07E-05
270.4      -1.67E-08
270.6      -2.22E-06
270.8      1.22E-05
271.0      -1.01E-05
271.2      6.73E-06
271.4      -5.64E-06
271.6      1.69E-05
271.8      -6.81E-06
272.0      3.39E-06
272.2      -1.14E-06
272.4      -9.20E-06
272.6      2.30E-06
272.8      1.87E-05
273.0      -1.51E-05
273.2      -3.25E-06
273.4      3.36E-05
273.6      1.74E-05
273.8      -8.75E-06
274.0      5.47E-06
274.2      1.21E-05
274.4      1.65E-05
274.6      4.43E-06
274.8      1.22E-05
275.0      -1.29E-08
275.2      1.35E-05
275.4      4.49E-06
275.6      -1.81E-05
275.8      6.79E-06
276.0      1.14E-05
276.2      2.52E-05
276.4      1.03E-05
276.6      7.46E-06
276.8      -1.08E-06
277.0      -8.60E-06
277.2      -1.11E-06
277.4      -1.20E-05
277.6      -7.63E-06
277.8      1.64E-05
278.0      9.85E-06
278.2      9.92E-06
278.4      1.66E-05
278.6      4.44E-06
278.8      5.04E-05
279.0      -2.29E-06
279.2      6.78E-06
279.4      -1.48E-05
279.6      -1.26E-05
279.8      -1.61E-05
280.0      6.91E-06
280.2      -3.49E-06
280.4      5.78E-06
280.6      -4.27E-06
280.8      -7.52E-06
281.0      1.08E-05
281.2      1.62E-05
281.4      2.39E-05
281.6      6.51E-06
281.8      6.55E-06
282.0      -6.65E-06
282.2      4.43E-06
282.4      2.00E-05
282.6      -5.66E-06
282.8      -1.06E-08
283.0      7.89E-06
283.2      -2.29E-06
283.4      -1.71E-05
283.6      2.52E-06
283.8      1.70E-05
284.0      -1.29E-05
284.2      3.03E-05
284.4      3.58E-05
284.6      1.20E-05
284.8      8.79E-06
285.0      -3.34E-06
285.2      -1.13E-06
285.4      2.01E-05
285.6      -1.08E-08
285.8      5.61E-06
286.0      1.10E-05
286.2      8.47E-06
286.4      1.70E-05
286.6      3.11E-05
286.8      7.51E-06
287.0      -1.73E-05
287.2      -1.09E-05
287.4      1.76E-05
287.6      -1.43E-05
287.8      7.76E-06
288.0      -1.14E-06
288.2      1.35E-05
288.4      -1.13E-05
288.6      1.36E-05
288.8      1.19E-05
289.0      1.70E-05
289.2      -1.18E-05
289.4      2.79E-05
289.6      -1.11E-06
289.8      1.85E-05
290.0      1.20E-05
290.2      9.91E-06
290.4      4.33E-05
290.6      1.34E-05
290.8      -2.26E-06
291.0      3.39E-06
291.2      1.40E-05
291.4      2.11E-05
291.6      4.24E-06
291.8      4.28E-06
292.0      5.36E-06
292.2      2.17E-06
292.4      -5.49E-06
292.6      1.64E-05
292.8      3.30E-06
293.0      -8.93E-06
293.2      3.02E-05
293.4      1.35E-05
293.6      9.65E-06
293.8      2.53E-05
294.0      2.11E-06
294.2      2.34E-05
294.4      1.28E-05
294.6      2.80E-05
294.8      -8.74E-06
295.0      1.09E-05
295.2      -5.50E-06
295.4      1.44E-05
295.6      1.34E-05
295.8      -1.24E-05
296.0      3.20E-06
296.2      1.68E-05
296.4      1.38E-05
296.6      2.12E-06
296.8      -2.16E-06
297.0      1.08E-05
297.2      -3.25E-06
297.4      3.25E-06
297.6      1.64E-05
297.8      1.32E-05
298.0      1.88E-05
298.2      1.11E-05
298.4      -1.12E-06
298.6      1.74E-05
298.8      -7.86E-06
299.0      1.79E-05
299.2      1.38E-05
299.4      1.06E-05
299.6      5.37E-06
299.8      3.22E-06
300.0      3.68E-05
300.2      8.71E-06
300.4      -9.88E-06
300.6      1.32E-05
300.8      2.76E-05
301.0      1.45E-05
301.2      -6.69E-06
301.4      1.68E-05
301.6      -2.04E-05
301.8      -8.39E-06
302.0      1.26E-05
302.2      -3.17E-06
302.4      3.18E-06
302.6      -1.06E-06
302.8      1.71E-05
303.0      1.08E-05
303.2      8.60E-06
303.4      3.24E-06
303.6      4.34E-06
303.8      1.86E-05
304.0      -3.29E-06
304.2      2.10E-05
304.4      -3.30E-06
304.6      2.34E-05
304.8      2.34E-05
305.0      2.92E-05
305.2      2.82E-05
305.4      2.40E-05
305.6      1.88E-05
305.8      5.23E-06
306.0      7.41E-06
306.2      1.91E-05
306.4      -4.27E-06
306.6      6.41E-06
306.8      -4.29E-06
307.0      -8.62E-06
307.2      2.82E-05
307.4      1.09E-05
307.6      7.65E-06
307.8      -2.62E-05
308.0      -1.11E-06
308.2      2.20E-06
308.4      2.88E-05
308.6      2.00E-05
308.8      1.78E-05
309.0      -1.01E-05
309.2      -5.43E-06
309.4      9.36E-06
309.6      1.46E-05
309.8      2.00E-05
310.0      1.06E-05
310.2      1.91E-05
310.4      1.81E-05
310.6      9.64E-06
310.8      2.12E-06
311.0      2.11E-06
311.2      -6.53E-06
311.4      -7.62E-06
311.6      1.97E-05
311.8      -1.21E-05
312.0      1.10E-05
312.2      6.60E-06
312.4      6.66E-06
312.6      2.01E-05
312.8      -4.51E-06
313.0      1.24E-05
313.2      1.28E-05
313.4      -9.44E-06
313.6      2.94E-05
313.8      -2.11E-05
314.0      4.23E-06
314.2      2.12E-06
314.4      -3.23E-06
314.6      2.15E-05
314.8      -1.09E-06
315.0      1.08E-06
315.2      2.95E-05
315.4      1.75E-05
315.6      7.70E-06
315.8      -1.13E-06
316.0      1.33E-05
316.2      7.82E-06
316.4      2.92E-05
316.6      6.77E-06
316.8      1.50E-05
317.0      -2.43E-08
317.2      -1.06E-06
317.4      -9.52E-06
317.6      8.48E-06
317.8      -4.28E-06
318.0      2.13E-06
318.2      9.67E-06
318.4      -3.27E-06
318.6      6.52E-06
318.8      2.18E-05
319.0      -1.10E-06
319.2      -9.96E-06
319.4      7.78E-06
319.6      6.70E-06
319.8      -7.89E-06
320.0      1.58E-05
320.2      9.38E-06
320.4      7.35E-06
320.6      7.35E-06
320.8      2.09E-06
321.0      2.14E-06
321.2      1.29E-05
321.4      -8.63E-06
321.6      4.34E-06
321.8      1.08E-06
322.0      2.85E-05
322.2      -2.31E-05
322.4      2.54E-05
322.6      1.00E-05
322.8      -4.48E-06
323.0      1.57E-05
323.2      9.41E-06
323.4      1.15E-05
323.6      -1.33E-09
323.8      1.58E-05
324.0      1.59E-05
324.2      2.03E-05
324.4      1.39E-05
324.6      1.51E-05
324.8      1.73E-05
325.0      -3.28E-06
325.2      -4.40E-06
325.4      -1.76E-05
325.6      -1.33E-05
325.8      -8.94E-06
326.0      -8.98E-06
326.2      1.12E-06
326.4      -9.05E-06
326.6      9.38E-06
326.8      1.37E-05
327.0      8.40E-06
327.2      -2.23E-05
327.4      -5.35E-06
327.6      4.28E-06
327.8      6.47E-06
328.0      1.31E-05
328.2      2.19E-05
328.4      1.31E-05
328.6      -6.63E-06
328.8      5.54E-06
329.0      2.24E-05
329.2      1.57E-05
329.4      1.14E-05
329.6      9.47E-06
329.8      9.40E-06
330.0      -4.26E-06
330.2      -3.19E-06
330.4      2.11E-06
330.6      -2.92E-08
330.8      -5.43E-06
331.0      1.07E-06
331.2      1.74E-05
331.4      1.42E-05
331.6      1.98E-05
331.8      5.50E-06
332.0      3.68E-05
332.2      2.69E-05
332.4      2.25E-05
332.6      5.62E-06
332.8      1.51E-05
333.0      5.25E-06
333.2      3.39E-05
333.4      1.17E-05
333.6      4.16E-05
333.8      -5.38E-06
334.0      4.28E-06
334.2      1.96E-05
334.4      2.51E-05
334.6      -6.61E-06
334.8      2.09E-05
335.0      7.76E-06
335.2      -5.60E-06
335.4      1.57E-05
335.6      -7.90E-06
335.8      2.71E-05
336.0      -4.09E-08
336.2      2.42E-05
336.4      3.13E-06
336.6      9.60E-06
336.8      1.28E-05
337.0      1.50E-05
337.2      2.14E-06
337.4      7.57E-06
337.6      -2.17E-06
337.8      8.76E-06
338.0      -3.31E-06
338.2      -1.86E-08
338.4      1.10E-06
338.6      1.90E-05
338.8      -1.12E-06
339.0      2.82E-05
339.2      1.12E-06
339.4      3.38E-06
339.6      1.83E-05
339.8      -1.15E-06
340.0      -5.49E-06
340.2      2.20E-06
340.4      2.20E-05
340.6      3.27E-06
340.8      6.63E-06
341.0      5.49E-06
341.2      4.41E-06
341.4      1.45E-05
341.6      1.33E-05
341.8      -1.10E-06
342.0      1.68E-05
342.2      2.13E-05
342.4      -3.03E-05
342.6      2.25E-06
342.8      1.46E-05
343.0      1.47E-05
343.2      -3.44E-06
343.4      1.70E-05
343.6      1.12E-06
343.8      2.26E-05
344.0      2.26E-06
344.2      -6.89E-06
344.4      1.07E-06
344.6      2.97E-05
344.8      1.83E-05
345.0      -1.02E-05
345.2      9.19E-06
345.4      1.15E-05
345.6      1.73E-05
345.8      -6.91E-06
346.0      3.50E-06
346.2      6.89E-06
346.4      3.46E-06
346.6      1.84E-05
346.8      -6.93E-08
347.0      -3.54E-06
347.2      1.26E-05
347.4      1.61E-05
347.6      1.50E-05
347.8      8.13E-06
348.0      -2.09E-05
348.2      8.17E-06
348.4      -5.67E-06
348.6      4.73E-06
348.8      7.11E-06
349.0      -9.36E-06
349.2      9.42E-06
349.4      2.71E-05
349.6      4.70E-06
349.8      3.48E-06
350.0      2.69E-05
350.2      1.20E-05
350.4      2.54E-05
350.6      1.55E-05
350.8      2.30E-06
351.0      2.26E-05
351.2      4.56E-06
351.4      1.74E-05
351.6      2.36E-05
351.8      1.78E-06
352.0      9.87E-06
352.2      8.52E-06
352.4      1.60E-05
352.6      1.20E-05
352.8      1.13E-06
353.0      2.40E-05
353.2      -2.65E-06
353.4      2.39E-05
353.6      1.88E-05
353.8      6.96E-06
354.0      2.11E-05
354.2      1.97E-05
354.4      2.97E-05
354.6      1.23E-05
354.8      9.75E-06
355.0      2.11E-05
355.2      2.08E-05
355.4      1.34E-05
355.6      3.03E-05
355.8      -3.79E-06
356.0      1.43E-05
356.2      8.20E-06
356.4      -1.46E-05
356.6      8.16E-06
356.8      2.59E-05
357.0      1.87E-05
357.2      2.20E-05
357.4      5.45E-06
357.6      8.93E-06
357.8      2.46E-06
358.0      1.49E-05
358.2      3.62E-06
358.4      1.59E-05
358.6      1.22E-05
358.8      1.08E-05
359.0      2.55E-05
359.2      5.86E-06
359.4      2.27E-05
359.6      1.32E-05
359.8      4.63E-06
360.0      2.01E-05
360.2      3.91E-05
360.4      5.81E-05
360.6      2.11E-05
360.8      4.61E-05
361.0      3.28E-05
361.2      -6.64E-07
361.4      9.88E-06
361.6      2.64E-05
361.8      3.13E-05
362.0      4.97E-06
362.2      3.10E-05
362.4      2.83E-05
362.6      1.83E-05
362.8      2.19E-05
363.0      4.04E-05
363.2      2.67E-05
363.4      4.86E-05
363.6      -2.42E-06
363.8      2.77E-05
364.0      2.88E-05
364.2      3.84E-05
364.4      2.99E-05
364.6      2.62E-05
364.8      1.29E-05
365.0      3.20E-05
365.2      2.96E-05
365.4      2.37E-05
365.6      2.93E-05
365.8      3.09E-05
366.0      3.68E-05
366.2      1.72E-05
366.4      1.64E-05
366.6      1.50E-05
366.8      2.89E-05
367.0      -2.50E-06
367.2      2.38E-05
367.4      8.52E-06
367.6      2.11E-05
367.8      2.46E-05
368.0      2.96E-05
368.2      2.09E-05
368.4      1.84E-05
368.6      2.19E-05
368.8      4.79E-06
369.0      1.69E-05
369.2      3.02E-05
369.4      2.05E-05
369.6      3.14E-05
369.8      4.76E-06
370.0      2.51E-05
370.2      2.40E-05
370.4      2.15E-05
370.6      1.32E-05
370.8      3.09E-05
371.0      2.13E-05
371.2      1.41E-05
371.4      1.94E-05
371.6      1.50E-05
371.8      3.84E-05
372.0      -1.75E-06
372.2      1.84E-05
372.4      9.09E-06
372.6      1.51E-05
372.8      3.02E-05
373.0      2.87E-05
373.2      2.03E-05
373.4      1.87E-05
373.6      2.24E-05
373.8      9.98E-06
374.0      4.10E-05
374.2      3.59E-05
374.4      2.58E-05
374.6      2.71E-05
374.8      1.96E-05
375.0      1.71E-05
375.2      1.45E-05
375.4      1.45E-05
375.6      1.82E-05
375.8      -1.11E-05
376.0      2.43E-05
376.2      1.68E-05
376.4      2.04E-05
376.6      2.04E-05
376.8      2.03E-05
377.0      9.67E-06
377.2      1.07E-05
377.4      5.95E-06
377.6      2.39E-05
377.8      1.06E-05
378.0      2.10E-05
378.2      1.92E-05
378.4      2.00E-05
378.6      9.12E-06
378.8      2.03E-05
379.0      1.90E-05
379.2      1.38E-05
379.4      2.15E-05
379.6      4.18E-05
379.8      4.29E-05
380.0      1.76E-05
380.2      1.62E-05
380.4      2.50E-05
380.6      3.62E-05
380.8      3.49E-05
381.0      2.74E-05
381.2      4.22E-05
381.4      5.34E-05
381.6      4.96E-05
381.8      2.49E-05
382.0      6.05E-05
382.2      5.29E-05
382.4      5.42E-05
382.6      5.16E-05
382.8      6.14E-05
383.0      7.71E-05
383.2      7.46E-05
383.4      9.67E-05
383.6      0.0001243
383.8      0.000134696
384.0      0.000177043
384.2      0.000195894
384.4      0.000269351
384.6      0.00031124
384.8      0.000383324
385.0      0.000508398
385.2      0.000611131
385.4      0.000797768
385.6      0.000942608
385.8      0.001108879
386.0      0.00128537
386.2      0.00150769
386.4      0.001646904
386.6      0.001884288
386.8      0.002045604
387.0      0.002167119
387.2      0.002281368
387.4      0.002426841
387.6      0.002443717
387.8      0.002514607
388.0      0.002627661
388.2      0.002731679
388.4      0.002779535
388.6      0.002815597
388.8      0.002975094
389.0      0.003043996
389.2      0.003101986
389.4      0.003336328
389.6      0.003345001
389.8      0.003393119
390.0      0.003445421
390.2      0.003432695
390.4      0.003310958
390.6      0.003189797
390.8      0.002975267
391.0      0.002784627
391.2      0.002535482
391.4      0.002245332
391.6      0.00193373
391.8      0.001710007
392.0      0.001453907
392.2      0.001182895
392.4      0.000972292
392.6      0.000829235
392.8      0.000660815
393.0      0.000572894
393.2      0.000442761
393.4      0.000394936
393.6      0.000286034
393.8      0.00027267
394.0      0.000214545
394.2      0.000194081
394.4      0.000192108
394.6      0.000155571
394.8      0.000142873
395.0      0.000131239
395.2      0.000112494
395.4      9.01E-05
395.6      0.000103462
395.8      8.79E-05
396.0      7.44E-05
396.2      9.80E-05
396.4      8.06E-05
396.6      4.15E-05
396.8      5.81E-05
397.0      6.82E-05
397.2      4.63E-05
397.4      6.40E-05
397.6      7.64E-05
397.8      7.35E-05
398.0      7.87E-05
398.2      5.19E-05
398.4      6.19E-05
398.6      7.76E-05
398.8      7.14E-05
399.0      5.86E-05
399.2      7.43E-05
399.4      7.05E-05
399.6      7.39E-05
399.8      6.64E-05
400.0      9.73E-05
400.2      0.00011103
400.4      0.000132869
400.6      0.000152825
400.8      0.000192617
401.0      0.000216985
401.2      0.000259059
401.4      0.000288188
401.6      0.000362826
401.8      0.000371291
402.0      0.000424331
402.2      0.000434721
402.4      0.000447907
402.6      0.000459024
402.8      0.00045422
403.0      0.000423537
403.2      0.00039141
403.4      0.000347042
403.6      0.00030032
403.8      0.000254162
404.0      0.000201427
404.2      0.000185263
404.4      0.000128714
404.6      8.82E-05
404.8      8.78E-05
405.0      5.21E-05
405.2      5.45E-05
405.4      7.61E-05
405.6      5.65E-05
405.8      2.55E-05
406.0      3.18E-05
406.2      2.91E-05
406.4      7.54E-06
406.6      2.50E-05
406.8      3.01E-05
407.0      1.62E-05
407.2      2.47E-05
407.4      4.81E-05
407.6      1.69E-05
407.8      1.73E-05
408.0      7.09E-06
408.2      3.93E-05
408.4      2.48E-05
408.6      5.74E-05
408.8      1.93E-05
409.0      3.68E-06
409.2      1.00E-05
409.4      1.64E-05
409.6      2.15E-05
409.8      2.51E-05
410.0      2.51E-05
410.2      1.99E-05
410.4      2.73E-05
410.6      -1.39E-06
410.8      1.09E-05
411.0      2.08E-05
411.2      4.52E-05
411.4      1.96E-05
411.6      1.73E-05
411.8      9.06E-06
412.0      -1.72E-05
412.2      8.89E-06
412.4      2.60E-05
412.6      3.88E-05
412.8      6.34E-06
413.0      3.45E-05
413.2      1.26E-05
413.4      2.53E-05
413.6      3.79E-05
413.8      2.01E-05
414.0      7.41E-06
414.2      -5.14E-06
414.4      3.35E-05
414.6      1.02E-05
414.8      -4.94E-06
415.0      2.62E-05
415.2      2.51E-06
415.4      9.11E-06
415.6      1.55E-05
415.8      3.36E-05
416.0      -2.78E-06
416.2      4.86E-05
416.4      7.54E-06
416.6      4.72E-05
416.8      -9.08E-06
417.0      1.49E-05
417.2      1.12E-05
417.4      3.11E-05
417.6      8.50E-07
417.8      2.93E-05
418.0      4.22E-05
418.2      3.81E-05
418.4      9.00E-06
418.6      1.68E-05
418.8      4.41E-05
419.0      1.53E-05
419.2      1.52E-05
419.4      1.41E-05
419.6      2.92E-05
419.8      3.91E-05
420.0      2.26E-05
420.2      5.01E-05
420.4      3.98E-05
420.6      2.80E-05
420.8      3.73E-05
421.0      5.19E-05
421.2      4.51E-05
421.4      5.28E-05
421.6      5.13E-05
421.8      3.39E-05
422.0      4.94E-05
422.2      5.71E-05
422.4      6.06E-05
422.6      7.73E-05
422.8      9.08E-05
423.0      9.69E-05
423.2      9.51E-05
423.4      0.000113735
423.6      0.000101841
423.8      9.53E-05
424.0      0.000130838
424.2      0.000136518
424.4      0.000155939
424.6      0.000183906
424.8      0.000196571
425.0      0.000171777
425.2      0.000207633
425.4      0.000216542
425.6      0.000254538
425.8      0.000267119
426.0      0.000288993
426.2      0.000317627
426.4      0.000341153
426.6      0.000382688
426.8      0.000380829
427.0      0.000411207
427.2      0.000445571
427.4      0.000480767
427.6      0.000557839
427.8      0.000547746
428.0      0.0006105
428.2      0.000649756
428.4      0.000700407
428.6      0.000718011
428.8      0.000791501
429.0      0.000819137
429.2      0.000919321
429.4      0.000935689
429.6      0.000999935
429.8      0.001062903
430.0      0.001147558
430.2      0.001215778
430.4      0.001280218
430.6      0.001370793
430.8      0.001450865
431.0      0.001498711
431.2      0.001601149
431.4      0.001707772
431.6      0.00178535
431.8      0.001889214
432.0      0.002031859
432.2      0.002126659
432.4      0.002231476
432.6      0.002394081
432.8      0.002505257
433.0      0.002634718
433.2      0.002806613
433.4      0.002966941
433.6      0.003166621
433.8      0.003317918
434.0      0.003475639
434.2      0.00371776
434.4      0.003855452
434.6      0.004085978
434.8      0.004336126
435.0      0.00457209
435.2      0.004797963
435.4      0.005043798
435.6      0.005346695
435.8      0.005614479
436.0      0.005995898
436.2      0.006298319
436.4      0.006541138
436.6      0.007002696
436.8      0.007303207
437.0      0.007712783
437.2      0.00810479
437.4      0.008657493
437.6      0.009106189
437.8      0.009598005
438.0      0.010131217
438.2      0.010788633
438.4      0.011353348
438.6      0.012063072
438.8      0.012703398
439.0      0.013440752
439.2      0.014172161
439.4      0.015046872
439.6      0.015905676
439.8      0.016828561
440.0      0.017918412
440.2      0.01893487
440.4      0.020161336
440.6      0.021315575
440.8      0.022613831
441.0      0.024024019
441.2      0.025636666
441.4      0.027260732
441.6      0.02914514
441.8      0.03090605
442.0      0.03286482
442.2      0.034935392
442.4      0.037316892
442.6      0.039834984
442.8      0.042551059
443.0      0.045578696
443.2      0.048450932
443.4      0.051785346
443.6      0.055486761
443.8      0.059426092
444.0      0.063717954
444.2      0.068477392
444.4      0.073361397
444.6      0.078872181
444.8      0.084457725
445.0      0.090765588
445.2      0.097960129
445.4      0.105573461
445.6      0.114035301
445.8      0.122756794
446.0      0.132493123
446.2      0.143042013
446.4      0.155286521
446.6      0.167603657
446.8      0.182599142
447.0      0.198195592
447.2      0.214363605
447.4      0.232305139
447.6      0.25313586
447.8      0.275803447
448.0      0.300547242
448.2      0.329659492
448.4      0.360529959
448.6      0.393476486
448.8      0.428833664
449.0      0.470353186
449.2      0.51614207
449.4      0.568574369
449.6      0.6256181
449.8      0.688598037
450.0      0.758295536
450.2      0.835235715
450.4      0.923283696
450.6      1.025696516
450.8      1.141499639
451.0      1.26564467
451.2      1.404556155
451.4      1.557246208
451.6      1.73256588
451.8      1.934687614
452.0      2.162276506
452.2      2.428234816
452.4      2.714127779
452.6      3.032543659
452.8      3.395342112
453.0      3.811983824
453.2      4.313122272
453.4      4.852358818
453.6      5.486305237
453.8      6.15666151
454.0      6.944611073
454.2      7.816742897
454.4      8.80993557
454.6      9.981760025
454.8      11.24630451
455.0      12.67657089
455.2      14.18198013
455.4      15.86997986
455.6      17.75872993
455.8      19.85918236
456.0      22.16564751
456.2      24.63628578
456.4      27.15868378
456.6      29.80163193
456.8      32.70058823
457.0      35.62646484
457.2      38.68896866
457.4      41.91605377
457.6      45.1096344
457.8      48.13975906
458.0      51.133358
458.2      54.17032242
458.4      56.97416687
458.6      59.79792404
458.8      62.31488037
459.0      64.92987823
459.2      67.03211975
459.4      69.13895416
459.6      71.01042175
459.8      72.71382904
460.0      74.23464966
460.2      75.32902527
460.4      76.55357361
460.6      77.60402679
460.8      78.7396698
461.0      79.27789307
461.2      79.66494751
461.4      80.50972748
461.6      81.07660675
461.8      81.62975311
462.0      82.17342377
462.2      82.03374481
462.4      82.47032166
462.6      82.66326904
462.8      83.046875
463.0      83.14911652
463.2      83.11093903
463.4      83.40264893
463.6      83.58850861
463.8      83.69739532
464.0      83.66384125
464.2      83.84339905
464.4      83.72169495
464.6      83.84951019
464.8      83.9743576
465.0      83.8500061
465.2      83.99541473
465.4      83.79660034
465.6      83.82910156
465.8      83.73970032
466.0      84.03981781
466.2      83.47669983
466.4      83.75041199
466.6      83.40200043
466.8      83.5655899
467.0      83.51998138
467.2      83.33992004
467.4      83.27700806
467.6      83.35388947
467.8      82.90384674
468.0      83.30508423
468.2      82.90726471
468.4      82.71913147
468.6      82.8089447
468.8      82.75190735
469.0      82.13465118
469.2      82.43715668
469.4      82.34828949
469.6      82.13213348
469.8      82.16065979
470.0      82.14038086
470.2      81.88591003
470.4      81.85592651
470.6      81.47447205
470.8      81.26157379
471.0      81.14096069
471.2      81.16282654
471.4      80.43358612
471.6      80.01931763
471.8      79.60762787
472.0      79.01459503
472.2      78.5164566
472.4      77.62572479
472.6      76.52024841
472.8      75.29527283
473.0      74.14032745
473.2      72.7381134
473.4      71.22689819
473.6      69.4050293
473.8      67.39026642
474.0      65.20904541
474.2      63.03636551
474.4      60.65365219
474.6      58.05541229
474.8      55.28392792
475.0      52.37664413
475.2      49.41693115
475.4      46.6113205
475.6      43.73510361
475.8      40.72943497
476.0      37.80804062
476.2      34.85924149
476.4      32.15382767
476.6      29.51744461
476.8      27.15968704
477.0      24.83863258
477.2      22.58824158
477.4      20.52280807
477.6      18.60011482
477.8      16.81233978
478.0      15.27026463
478.2      13.84069061
478.4      12.47438049
478.6      11.24435234
478.8      10.10625839
479.0      9.069465637
479.2      8.184239388
479.4      7.41994524
479.6      6.731608391
479.8      6.088371754
480.0      5.502977371
480.2      4.96763134
480.4      4.473059654
480.6      4.065500259
480.8      3.705741167
481.0      3.368766546
481.2      3.069455862
481.4      2.781253099
481.6      2.524518967
481.8      2.300128937
482.0      2.108793974
482.2      1.931565642
482.4      1.769126177
482.6      1.61859715
482.8      1.483053446
483.0      1.360679746
483.2      1.250298262
483.4      1.152009368
483.6      1.065830231
483.8      0.984268546
484.0      0.906186461
484.2      0.836585343
484.4      0.772904158
484.6      0.715285897
484.8      0.665973008
485.0      0.619064927
485.2      0.573382616
485.4      0.532672525
485.6      0.494077474
485.8      0.460384518
486.0      0.429719955
486.2      0.402166426
486.4      0.376422346
486.6      0.350074738
486.8      0.327608734
487.0      0.305999696
487.2      0.287292928
487.4      0.269819439
487.6      0.253391385
487.8      0.238428965
488.0      0.223642498
488.2      0.210224956
488.4      0.197710216
488.6      0.186392531
488.8      0.175877541
489.0      0.165885359
489.2      0.157074288
489.4      0.147774234
489.6      0.140322074
489.8      0.132130832
490.0      0.125237629
490.2      0.119113855
490.4      0.113029949
490.6      0.106893502
490.8      0.101584986
491.0      0.09627828
491.2      0.091576524
491.4      0.087331526
491.6      0.083116159
491.8      0.079427943
492.0      0.075206682
492.2      0.071862258
492.4      0.068316266
492.6      0.065395884
492.8      0.062413909
493.0      0.059808303
493.2      0.057146989
493.4      0.054556124
493.6      0.052107412
493.8      0.049836807
494.0      0.04783624
494.2      0.045835555
494.4      0.043871116
494.6      0.042118084
494.8      0.040456802
495.0      0.038724747
495.2      0.03717754
495.4      0.035737552
495.6      0.034399342
495.8      0.033135202
496.0      0.031736162
496.2      0.030614171
496.4      0.029414499
496.6      0.028546125
496.8      0.027347958
497.0      0.026290858
497.2      0.025510302
497.4      0.024517
497.6      0.023647105
497.8      0.022837803
498.0      0.021941617
498.2      0.021332186
498.4      0.020614304
498.6      0.019946411
498.8      0.019320395
499.0      0.018647637
499.2      0.018006943
499.4      0.017450675
499.6      0.016931886
499.8      0.016419442
500.0      0.01597915
500.2      0.015504946
500.4      0.014972406
500.6      0.014410166
500.8      0.0140801
501.0      0.01368905
501.2      0.013364497
501.4      0.01296633
501.6      0.012525704
501.8      0.012267347
502.0      0.011820285
502.2      0.011563111
502.4      0.011293076
502.6      0.011027504
502.8      0.010685922
503.0      0.01035707
503.2      0.010098292
503.4      0.009863697
503.6      0.009622483
503.8      0.009424491
504.0      0.009126592
504.2      0.008984775
504.4      0.008680504
504.6      0.008503037
504.8      0.008333884
505.0      0.008155866
505.2      0.007992076
505.4      0.007754718
505.6      0.007556425
505.8      0.007369766
506.0      0.007332151
506.2      0.007087573
506.4      0.006953744
506.6      0.006763088
506.8      0.006633434
507.0      0.006518895
507.2      0.006393384
507.4      0.006282066
507.6      0.006146939
507.8      0.006065099
508.0      0.005900008
508.2      0.005768943
508.4      0.005701369
508.6      0.005598369
508.8      0.005469467
509.0      0.005412722
509.2      0.005318838
509.4      0.005174923
509.6      0.00514927
509.8      0.004988491
510.0      0.004919468
510.2      0.004832221
510.4      0.004752892
510.6      0.004647313
510.8      0.004563944
511.0      0.004512475
511.2      0.004404803
511.4      0.004363821
511.6      0.004315351
511.8      0.004235787
512.0      0.004144893
512.2      0.004094452
512.4      0.004032767
512.6      0.003982807
512.8      0.003905011
513.0      0.003843575
513.2      0.003798089
513.4      0.003751038
513.6      0.003653588
513.8      0.003643159
514.0      0.003575214
514.2      0.003501656
514.4      0.003460676
514.6      0.003418698
514.8      0.00336215
515.0      0.003344278
515.2      0.003203267
515.4      0.003218508
515.6      0.00314244
515.8      0.003120743
516.0      0.003073951
516.2      0.002982461
516.4      0.00293967
516.6      0.002898693
516.8      0.00283306
517.0      0.002807869
517.2      0.002708217
517.4      0.002655225
517.6      0.002580395
517.8      0.002583185
518.0      0.00245891
518.2      0.002373281
518.4      0.002318368
518.6      0.002213503
518.8      0.002110892
519.0      0.002046741
519.2      0.001983156
519.4      0.001901237
519.6      0.00183776
519.8      0.001747147
520.0      0.001673473
520.2      0.001599405
520.4      0.00150209
520.6      0.001430592
520.8      0.001328496
521.0      0.001278225
521.2      0.001192123
521.4      0.001117564
521.6      0.001026321
521.8      0.000968172
522.0      0.00091947
522.2      0.000859229
522.4      0.000756517
522.6      0.000766776
522.8      0.00070476
523.0      0.000660367
523.2      0.000591859
523.4      0.000553885
523.6      0.000484786
523.8      0.000470231
524.0      0.000444029
524.2      0.000407453
524.4      0.000406308
524.6      0.000353896
524.8      0.000333259
525.0      0.000300102
525.2      0.00027615
525.4      0.00025435
525.6      0.000231003
525.8      0.000219958
526.0      0.000215337
526.2      0.000182857
526.4      0.000172486
526.6      0.000173217
526.8      0.000159407
527.0      0.000155897
527.2      0.000117465
527.4      0.000121712
527.6      0.000125277
527.8      0.00010011
528.0      7.99E-05
528.2      8.22E-05
528.4      9.06E-05
528.6      8.95E-05
528.8      8.00E-05
529.0      6.81E-05
529.2      7.53E-05
529.4      6.70E-05
529.6      5.49E-05
529.8      8.48E-05
530.0      5.37E-05
530.2      5.75E-05
530.4      3.94E-05
530.6      3.10E-05
530.8      5.15E-05
531.0      4.31E-05
531.2      3.94E-05
531.4      5.38E-05
531.6      3.48E-05
531.8      4.31E-05
532.0      3.47E-05
532.2      2.76E-05
532.4      3.82E-05
532.6      1.91E-05
532.8      4.20E-05
533.0      2.63E-05
533.2      4.56E-05
533.4      2.88E-05
533.6      9.51E-06
533.8      2.52E-05
534.0      2.76E-05
534.2      3.24E-05
534.4      2.64E-05
534.6      2.88E-05
534.8      8.33E-06
535.0      3.24E-05
535.2      2.16E-05
535.4      1.92E-05
535.6      1.68E-05
535.8      3.38E-05
536.0      1.92E-05
536.2      2.41E-05
536.4      -2.58E-06
536.6      1.57E-05
536.8      1.45E-05
537.0      3.48E-06
537.2      1.20E-05
537.4      2.05E-05
537.6      -4.97E-06
537.8      1.20E-05
538.0      5.92E-06
538.2      -1.29E-06
538.4      3.28E-05
538.6      8.39E-06
538.8      2.19E-05
539.0      9.61E-06
539.2      -6.29E-06
539.4      1.82E-05
539.6      4.16E-05
539.8      2.69E-05
540.0      7.26E-06
540.2      2.33E-05
540.4      -2.64E-06
540.6      2.32E-05
540.8      2.30E-06
541.0      2.70E-05
541.2      2.34E-05
541.4      -6.37E-06
541.6      -2.69E-06
541.8      9.71E-06
542.0      1.35E-05
542.2      2.47E-05
542.4      -6.43E-06
542.6      -5.17E-06
542.8      4.74E-06
543.0      -3.79E-06
543.2      3.53E-06
543.4      4.86E-06
543.6      1.74E-05
543.8      2.25E-05
544.0      1.12E-05
544.2      2.65E-05
544.4      2.39E-06
544.6      -4.01E-06
544.8      1.14E-05
545.0      1.52E-05
545.2      1.39E-05
545.4      4.97E-06
545.6      1.40E-05
545.8      1.15E-05
546.0      -2.50E-07
546.2      -6.56E-06
546.4      1.15E-06
546.6      3.35E-05
546.8      1.27E-05
547.0      1.40E-05
547.2      -7.97E-06
547.4      1.67E-05
547.6      -9.19E-06
547.8      2.17E-05
548.0      2.42E-06
548.2      -6.64E-06
548.4      8.86E-06
548.6      2.39E-06
548.8      1.67E-05
549.0      1.53E-05
549.2      1.93E-05
549.4      1.67E-05
549.6      1.41E-05
549.8      1.02E-05
550.0      -1.05E-05
550.2      -2.74E-06
550.4      2.30E-05
550.6      1.53E-05
550.8      -2.71E-06
551.0      4.94E-06
551.2      -1.31E-05
551.4      -9.21E-06
551.6      -1.49E-06
551.8      2.56E-05
552.0      1.13E-05
552.2      1.01E-05
552.4      2.95E-05
552.6      1.16E-06
552.8      1.05E-06
553.0      -1.55E-06
553.2      -6.66E-06
553.4      1.26E-05
553.6      1.14E-05
553.8      2.43E-05
554.0      2.30E-05
554.2      6.24E-06
554.4      1.15E-05
554.6      -6.71E-06
554.8      -2.54E-07
555.0      -2.20E-05
555.2      2.29E-05
555.4      2.56E-05
555.6      3.67E-06
555.8      1.52E-05
556.0      8.81E-06
556.2      5.38E-05
556.4      8.84E-06
556.6      -4.04E-06
556.8      -2.07E-05
557.0      2.39E-06
557.2      7.39E-06
557.4      1.90E-05
557.6      2.82E-05
557.8      -1.44E-05
558.0      -1.05E-05
558.2      3.66E-06
558.4      1.27E-05
558.6      4.94E-06
558.8      1.01E-05
559.0      8.84E-06
559.2      2.81E-05
559.4      -1.57E-05
559.6      -1.67E-07
559.8      1.06E-06
560.0      -2.45E-07
560.2      1.40E-05
560.4      -6.64E-06
560.6      2.43E-05
560.8      2.03E-05
561.0      -1.05E-05
561.2      1.13E-05
561.4      -2.72E-06
561.6      1.27E-05
561.8      1.65E-05
562.0      1.39E-05
562.2      -1.48E-06
562.4      -1.40E-06
562.6      1.05E-06
562.8      -6.56E-06
563.0      1.27E-05
563.2      -2.09E-07
563.4      -6.59E-06
563.6      1.02E-05
563.8      1.41E-05
564.0      1.79E-05
564.2      -4.09E-06
564.4      -4.19E-06
564.6      1.41E-05
564.8      -9.34E-06
565.0      5.10E-06
565.2      2.85E-05
565.4      1.15E-05
565.6      -1.19E-05
565.8      8.92E-06
566.0      3.67E-06
566.2      1.28E-05
566.4      2.71E-05
566.6      -1.95E-05
566.8      2.05E-05
567.0      -2.15E-07
567.2      -1.05E-05
567.4      1.14E-05
567.6      2.54E-05
567.8      1.34E-05
568.0      2.96E-05
568.2      5.91E-06
568.4      7.90E-06
568.6      -9.72E-06
568.8      1.76E-05
569.0      2.46E-06
569.2      2.14E-05
569.4      1.75E-05
569.6      1.47E-05
569.8      2.82E-05
570.0      -1.23E-05
570.2      2.45E-06
570.4      1.33E-05
570.6      -1.89E-05
570.8      2.79E-05
571.0      3.63E-06
571.2      -1.62E-05
571.4      1.71E-05
571.6      3.73E-06
571.8      1.17E-05
572.0      8.99E-06
572.2      1.80E-05
572.4      7.71E-06
572.6      1.07E-06
572.8      1.28E-05
573.0      -2.90E-06
573.2      8.96E-06
573.4      3.66E-05
573.6      1.43E-05
573.8      1.46E-05
574.0      8.57E-06
574.2      -6.99E-06
574.4      2.70E-05
574.6      -2.13E-07
574.8      -1.60E-06
575.0      -8.20E-06
575.2      5.16E-06
575.4      1.45E-05
575.6      1.45E-05
575.8      -1.06E-05
576.0      2.22E-05
576.2      1.69E-05
576.4      2.74E-05
576.6      1.18E-06
576.8      8.93E-06
577.0      1.39E-05
577.2      4.48E-05
577.4      -2.96E-06
577.6      1.17E-05
577.8      3.86E-06
578.0      6.74E-06
578.2      4.06E-05
578.4      3.52E-05
578.6      -1.64E-05
578.8      7.96E-06
579.0      1.45E-05
579.2      3.04E-05
579.4      2.24E-05
579.6      4.07E-05
579.8      3.26E-05
580.0      8.90E-06
580.2      2.84E-05
580.4      3.32E-05
580.6      3.11E-05
580.8      1.65E-05
581.0      3.83E-05
581.2      2.72E-05
581.4      3.65E-05
581.6      2.02E-05
581.8      3.62E-05
582.0      2.52E-05
582.2      3.18E-05
582.4      4.06E-05
582.6      4.05E-05
582.8      1.42E-05
583.0      3.23E-05
583.2      4.01E-05
583.4      2.99E-05
583.6      1.65E-05
583.8      3.66E-05
584.0      1.75E-05
584.2      4.68E-05
584.4      3.59E-05
584.6      2.38E-05
584.8      4.20E-05
585.0      2.10E-05
585.2      1.43E-05
585.4      7.09E-05
585.6      9.80E-06
585.8      2.88E-05
586.0      1.63E-05
586.2      4.06E-05
586.4      2.14E-05
586.6      3.05E-05
586.8      3.03E-05
587.0      2.08E-05
587.2      2.45E-05
587.4      1.54E-05
587.6      1.90E-05
587.8      5.30E-05
588.0      7.07E-06
588.2      2.17E-05
588.4      1.33E-05
588.6      2.79E-05
588.8      2.37E-05
589.0      3.54E-05
589.2      3.89E-06
589.4      1.04E-06
589.6      5.50E-05
589.8      3.01E-05
590.0      9.85E-06
590.2      2.02E-05
590.4      2.29E-05
590.6      2.26E-05
590.8      2.57E-06
591.0      1.70E-05
591.2      2.22E-05
591.4      2.19E-05
591.6      -7.98E-06
591.8      1.61E-06
592.0      1.41E-06
592.2      2.17E-05
592.4      3.10E-05
592.6      1.60E-05
592.8      3.71E-06
593.0      1.18E-05
593.2      -4.13E-06
593.4      8.86E-06
593.6      1.17E-05
593.8      -4.98E-06
594.0      1.72E-05
594.2      1.49E-05
594.4      1.21E-05
594.6      -2.31E-05
594.8      -9.58E-06
595.0      6.47E-06
595.2      1.70E-05
595.4      1.29E-05
595.6      8.90E-06
595.8      2.45E-05
596.0      2.36E-06
596.2      -9.16E-06
596.4      2.61E-05
596.6      5.10E-06
596.8      2.73E-05
597.0      2.01E-05
597.2      2.54E-06
597.4      5.13E-06
597.6      1.73E-05
597.8      6.52E-06
598.0      2.36E-05
598.2      3.28E-05
598.4      7.70E-06
598.6      -1.73E-05
598.8      2.48E-06
599.0      2.33E-05
599.2      2.05E-05
599.4      2.17E-05
599.6      1.14E-05
599.8      2.43E-05
600.0      4.93E-06
600.2      3.73E-06
600.4      2.41E-05
600.6      7.32E-06
600.8      -2.18E-05
601.0      1.38E-05
601.2      7.53E-06
601.4      2.12E-05
601.6      8.59E-06
601.8      8.53E-06
602.0      3.53E-06
602.2      -2.66E-06
602.4      -6.53E-06
602.6      -1.56E-06
602.8      1.62E-05
603.0      2.00E-05
603.2      -1.28E-05
603.4      -6.46E-06
603.6      1.37E-05
603.8      -2.51E-07
604.0      2.24E-05
604.2      7.39E-06
604.4      3.19E-05
604.6      -1.01E-06
604.8      6.37E-06
605.0      -1.31E-05
605.2      7.51E-06
605.4      2.29E-05
605.6      -8.28E-06
605.8      -2.30E-07
606.0      -1.54E-05
606.2      2.00E-05
606.4      -6.09E-06
606.6      3.41E-06
606.8      3.39E-06
607.0      1.65E-05
607.2      1.67E-05
607.4      1.79E-05
607.6      -8.66E-06
607.8      -1.23E-05
608.0      9.49E-06
608.2      -2.65E-06
608.4      -1.43E-06
608.6      4.03E-05
608.8      -1.25E-05
609.0      3.06E-05
609.2      1.82E-05
609.4      -2.10E-07
609.6      2.22E-05
609.8      1.10E-05
610.0      -6.42E-06
610.2      1.05E-06
610.4      7.59E-07
610.6      3.16E-05
610.8      1.09E-05
611.0      -9.66E-06
611.2      3.41E-05
611.4      -8.50E-06
611.6      1.05E-05
611.8      1.41E-05
612.0      5.68E-06
612.2      7.08E-06
612.4      1.66E-05
612.6      2.77E-05
612.8      1.67E-05
613.0      2.05E-05
613.2      1.09E-05
613.4      1.57E-05
613.6      1.34E-05
613.8      6.12E-06
614.0      2.56E-05
614.2      1.58E-05
614.4      1.46E-05
614.6      8.56E-06
614.8      2.10E-05
615.0      2.36E-06
615.2      2.36E-05
615.4      2.31E-06
615.6      1.62E-05
615.8      1.01E-05
616.0      4.95E-06
616.2      -2.59E-06
616.4      1.26E-05
616.6      1.76E-05
616.8      2.91E-05
617.0      2.28E-05
617.2      1.52E-05
617.4      2.93E-05
617.6      1.91E-05
617.8      2.16E-05
618.0      -1.16E-05
618.2      1.92E-05
618.4      2.31E-05
618.6      2.04E-05
618.8      1.80E-05
619.0      2.97E-05
619.2      1.54E-05
619.4      1.93E-05
619.6      1.41E-05
619.8      2.45E-05
620.0      4.28E-05
620.2      2.46E-05
620.4      1.43E-05
620.6      1.03E-05
620.8      1.42E-05
621.0      2.20E-05
621.2      2.33E-05
621.4      1.94E-05
621.6      1.28E-05
621.8      2.60E-06
622.0      2.60E-05
622.2      2.84E-05
622.4      5.00E-06
622.6      1.69E-05
622.8      6.46E-06
623.0      2.85E-05
623.2      -2.33E-07
623.4      3.89E-05
623.6      -2.76E-06
623.8      1.54E-05
624.0      -6.60E-06
624.2      1.92E-05
624.4      -1.64E-07
624.6      3.59E-05
624.8      1.14E-05
625.0      6.21E-06
625.2      1.28E-05
625.4      1.07E-06
625.6      4.90E-06
625.8      2.17E-05
626.0      6.23E-06
626.2      4.97E-06
626.4      8.70E-06
626.6      -1.42E-05
626.8      8.76E-06
627.0      2.00E-05
627.2      3.16E-05
627.4      -2.58E-07
627.6      1.34E-05
627.8      1.06E-06
628.0      -6.89E-06
628.2      9.51E-06
628.4      -1.12E-05
628.6      -1.71E-06
628.8      1.11E-06
629.0      1.73E-05
629.2      1.72E-05
629.4      -2.02E-05
629.6      5.23E-06
629.8      1.99E-05
630.0      1.31E-05
630.2      1.97E-05
630.4      3.76E-06
630.6      1.17E-05
630.8      7.70E-06
631.0      3.40E-05
631.2      -1.07E-05
631.4      -1.84E-05
631.6      3.67E-06
631.8      1.54E-05
632.0      -2.84E-07
632.2      1.14E-05
632.4      2.34E-06
632.6      3.08E-05
632.8      1.27E-05
633.0      2.28E-05
633.2      7.44E-06
633.4      -1.93E-05
633.6      1.37E-05
633.8      -2.74E-06
634.0      -2.19E-05
634.2      -2.74E-06
634.4      -6.45E-06
634.6      9.26E-07
634.8      -1.48E-06
635.0      -2.71E-06
635.2      1.01E-06
635.4      -7.65E-06
635.6      3.61E-06
635.8      -6.48E-06
636.0      -6.45E-06
636.2      1.95E-05
636.4      9.69E-06
636.6      -2.72E-06
636.8      3.28E-05
637.0      -3.89E-06
637.2      7.09E-06
637.4      2.29E-06
637.6      2.17E-05
637.8      -5.11E-06
638.0      1.32E-05
638.2      6.97E-06
638.4      1.07E-06
638.6      3.59E-05
638.8      -1.46E-05
639.0      -4.99E-06
639.2      -7.44E-06
639.4      1.42E-05
639.6      2.14E-05
639.8      1.05E-05
640.0      9.36E-06
640.2      -6.24E-06
640.4      -1.96E-07
640.6      4.57E-06
640.8      -3.81E-06
641.0      4.01E-05
641.2      6.91E-06
641.4      -2.58E-06
641.6      -2.55E-06
641.8      1.52E-05
642.0      -1.47E-07
642.2      3.29E-06
642.4      -3.73E-06
642.6      1.40E-05
642.8      2.19E-06
643.0      9.58E-07
643.2      6.89E-06
643.4      1.15E-05
643.6      2.91E-05
643.8      -8.40E-06
644.0      3.97E-05
644.2      2.21E-05
644.4      8.07E-06
644.6      3.23E-06
644.8      -6.03E-06
645.0      3.03E-05
645.2      4.57E-06
645.4      1.63E-05
645.6      1.28E-05
645.8      1.62E-05
646.0      1.05E-05
646.2      1.52E-05
646.4      4.55E-06
646.6      1.87E-05
646.8      3.40E-06
647.0      9.33E-06
647.2      3.77E-05
647.4      -2.27E-05
647.6      9.80E-07
647.8      5.78E-06
648.0      1.41E-05
648.2      2.24E-05
648.4      5.80E-06
648.6      5.76E-06
648.8      1.54E-05
649.0      1.66E-05
649.2      1.79E-05
649.4      -8.55E-06
649.6      -2.56E-07
649.8      5.89E-06
650.0      1.01E-06
650.2      1.06E-05
650.4      1.21E-05
650.6      2.66E-05
650.8      1.82E-05
651.0      8.33E-06
651.2      -7.51E-06
651.4      1.34E-05
651.6      -1.74E-05
651.8      -3.93E-06
652.0      9.74E-06
652.2      7.25E-06
652.4      1.32E-05
652.6      -7.10E-06
652.8      3.15E-06
653.0      8.05E-06
653.2      -1.41E-05
653.4      -2.65E-06
653.6      -6.12E-06
653.8      6.93E-06
654.0      -1.42E-06
654.2      1.77E-05
654.4      6.99E-06
654.6      -9.80E-06
654.8      -1.46E-05
655.0      3.36E-06
655.2      1.08E-05
655.4      2.06E-05
655.6      2.34E-06
655.8      1.46E-05
656.0      -6.42E-06
656.2      -1.98E-07
656.4      1.07E-06
656.6      -2.31E-06
656.8      2.17E-06
657.0      -7.70E-06
657.2      -1.51E-05
657.4      -1.68E-05
657.6      -1.67E-05
657.8      1.04E-05
658.0      1.63E-05
658.2      1.66E-05
658.4      2.27E-06
658.6      -5.10E-06
658.8      1.56E-05
659.0      1.32E-05
659.2      -1.98E-05
659.4      3.43E-06
659.6      1.22E-05
659.8      3.60E-06
660.0      -2.70E-06
660.2      -1.30E-05
660.4      -3.16E-05
660.6      -4.94E-06
660.8      -1.27E-07
661.0      3.29E-06
661.2      4.60E-06
661.4      -6.17E-06
661.6      2.63E-05
661.8      -1.83E-05
662.0      -8.68E-06
662.2      7.24E-06
662.4      -1.73E-05
662.6      6.03E-06
662.8      6.06E-06
663.0      2.98E-05
663.2      2.04E-05
663.4      2.31E-05
663.6      -1.07E-05
663.8      -2.14E-07
664.0      1.51E-05
664.2      2.13E-05
664.4      4.56E-06
664.6      -7.52E-06
664.8      -8.70E-06
665.0      -7.59E-06
665.2      8.42E-06
665.4      -7.69E-06
665.6      -1.47E-06
665.8      2.46E-05
666.0      -9.86E-06
666.2      -9.35E-08
666.4      -1.91E-05
666.6      -1.80E-05
666.8      -2.50E-06
667.0      -2.52E-06
667.2      9.78E-07
667.4      -2.08E-05
667.6      -1.46E-06
667.8      1.57E-05
668.0      1.13E-06
668.2      2.20E-06
668.4      -8.97E-06
668.6      -8.39E-07
668.8      -2.47E-05
669.0      5.73E-06
669.2      -6.09E-06
669.4      -2.59E-06
669.6      1.30E-05
669.8      2.03E-05
670.0      -1.41E-06
670.2      9.31E-07
670.4      -2.87E-07
670.6      9.62E-07
670.8      6.03E-06
671.0      2.33E-06
671.2      6.69E-06
671.4      -1.19E-05
671.6      -1.71E-07
671.8      -4.95E-06
672.0      4.56E-06
672.2      1.30E-05
672.4      2.15E-05
672.6      -2.31E-05
672.8      -2.09E-05
673.0      9.68E-06
673.2      2.32E-05
673.4      2.96E-05
673.6      -1.13E-05
673.8      -7.76E-06
674.0      3.91E-06
674.2      1.74E-05
674.4      5.80E-06
674.6      -2.58E-06
674.8      1.02E-06
675.0      -1.43E-06
675.2      9.59E-06
675.4      8.35E-06
675.6      -1.13E-05
675.8      7.30E-06
676.0      -2.01E-05
676.2      1.46E-05
676.4      -1.14E-05
676.6      -1.31E-05
676.8      -7.22E-06
677.0      -4.88E-06
677.2      -5.02E-06
677.4      -2.30E-05
677.6      -2.22E-07
677.8      -7.51E-06
678.0      1.08E-05
678.2      -1.62E-05
678.4      6.06E-06
678.6      1.23E-05
678.8      -8.90E-06
679.0      2.11E-06
679.2      -2.37E-05
679.4      -9.59E-06
679.6      -1.21E-05
679.8      3.38E-06
680.0      8.25E-06
680.2      5.87E-06
680.4      -2.33E-05
680.6      -2.34E-05
680.8      -7.60E-06
681.0      -3.88E-06
681.2      1.72E-05
681.4      -1.68E-05
681.6      -1.16E-05
681.8      1.26E-05
682.0      1.28E-05
682.2      1.30E-05
682.4      -9.75E-06
682.6      -2.53E-06
682.8      1.68E-05
683.0      2.64E-05
683.2      1.69E-05
683.4      -1.86E-05
683.6      -8.82E-06
683.8      8.49E-06
684.0      8.55E-06
684.2      -1.68E-05
684.4      9.80E-06
684.6      -2.55E-06
684.8      -1.20E-05
685.0      -1.32E-05
685.2      -1.01E-07
685.4      -7.41E-06
685.6      -2.27E-07
685.8      -1.32E-06
686.0      -7.53E-06
686.2      3.48E-06
686.4      1.96E-05
686.6      2.34E-06
686.8      -2.76E-05
687.0      -2.34E-05
687.2      -2.48E-05
687.4      1.52E-05
687.6      2.20E-06
687.8      4.63E-06
688.0      1.42E-05
688.2      1.92E-05
688.4      1.20E-05
688.6      -3.81E-06
688.8      -2.63E-06
689.0      -1.86E-05
689.2      -1.01E-05
689.4      2.60E-05
689.6      1.29E-05
689.8      1.62E-05
690.0      -7.20E-06
690.2      -1.55E-05
690.4      2.21E-06
690.6      -3.79E-06
690.8      4.06E-05
691.0      1.79E-05
691.2      5.92E-06
691.4      9.56E-06
691.6      2.34E-06
691.8      4.82E-06
692.0      -6.42E-06
692.2      1.23E-05
692.4      9.75E-06
692.6      2.61E-05
692.8      -3.26E-06
693.0      1.87E-05
693.2      -4.85E-06
693.4      -1.58E-07
693.6      1.18E-05
693.8      -5.00E-06
694.0      1.01E-06
694.2      1.32E-05
694.4      3.47E-06
694.6      1.47E-05
694.8      6.07E-06
695.0      1.22E-05
695.2      -1.63E-05
695.4      3.86E-06
695.6      -6.83E-06
695.8      -4.83E-06
696.0      2.10E-05
696.2      3.26E-06
696.4      -1.29E-06
696.6      2.29E-06
696.8      3.42E-06
697.0      -1.66E-07
697.2      9.65E-06
697.4      7.21E-06
697.6      2.28E-06
697.8      6.09E-06
698.0      -1.51E-05
698.2      1.82E-06
698.4      2.42E-07
698.6      -2.36E-05
698.8      -1.70E-07
699.0      1.29E-05
699.2      5.73E-06
699.4      2.38E-05
699.6      8.15E-06
699.8      -9.89E-06
700.0      1.08E-05
700.2      1.81E-05
700.4      5.99E-06
700.6      8.50E-06
700.8      1.85E-05
701.0      -1.64E-05
701.2      2.89E-05
701.4      -1.21E-05
701.6      -1.02E-05
701.8      -1.41E-06
702.0      8.13E-06
702.2      9.88E-07
702.4      -7.31E-06
702.6      -3.78E-06
702.8      2.19E-06
703.0      3.44E-06
703.2      2.18E-05
703.4      -3.89E-06
703.6      7.25E-06
703.8      -7.59E-06
704.0      -1.38E-05
704.2      -2.04E-07
704.4      4.89E-06
704.6      1.06E-06
704.8      -8.88E-06
705.0      5.61E-06
705.2      -3.65E-06
705.4      -4.88E-06
705.6      -1.33E-05
705.8      -7.36E-06
706.0      2.18E-06
706.2      1.06E-05
706.4      7.11E-06
706.6      5.86E-06
706.8      5.98E-06
707.0      4.72E-06
707.2      -1.12E-05
707.4      2.38E-06
707.6      2.27E-06
707.8      1.23E-05
708.0      4.58E-06
708.2      1.50E-05
708.4      3.44E-06
708.6      5.70E-06
708.8      -1.39E-06
709.0      -1.34E-06
709.2      1.42E-05
709.4      5.82E-06
709.6      -1.83E-05
709.8      -5.03E-06
710.0      -1.45E-06
710.2      -1.09E-07
710.4      1.13E-06
710.6      1.59E-05
710.8      1.36E-05
711.0      1.17E-06
711.2      4.85E-07
711.4      -6.07E-06
711.6      -7.28E-06
711.8      6.84E-06
712.0      2.25E-06
712.2      9.36E-06
712.4      1.55E-05
712.6      2.76E-05
712.8      7.06E-06
713.0      1.00E-06
713.2      1.09E-05
713.4      7.26E-06
713.6      -5.06E-06
713.8      -1.50E-05
714.0      -5.19E-06
714.2      6.08E-06
714.4      1.59E-05
714.6      1.65E-05
714.8      -2.21E-05
715.0      -6.06E-06
715.2      9.20E-06
715.4      -3.81E-06
715.6      -4.97E-06
715.8      7.02E-06
716.0      1.04E-06
716.2      -8.66E-06
716.4      2.19E-05
716.6      8.33E-06
716.8      -1.99E-05
717.0      1.97E-05
717.2      1.87E-05
717.4      1.48E-05
717.6      2.79E-05
717.8      3.96E-06
718.0      -7.99E-06
718.2      -2.51E-06
718.4      1.75E-05
718.6      -1.45E-05
718.8      -6.17E-06
719.0      -1.58E-05
719.2      4.65E-06
719.4      8.32E-06
719.6      -1.46E-07
719.8      -1.61E-05
720.0      -5.25E-06
720.2      1.59E-05
720.4      -2.66E-06
720.6      -1.14E-05
720.8      1.11E-06
721.0      -1.59E-06
721.2      -1.08E-05
721.4      2.25E-06
721.6      1.28E-05
721.8      1.64E-05
722.0      2.12E-06
722.2      1.89E-05
722.4      -2.06E-05
722.6      -2.04E-07
722.8      -1.23E-05
723.0      3.52E-06
723.2      -1.71E-07
723.4      8.45E-06
723.6      -1.81E-07
723.8      -2.69E-06
724.0      2.24E-05
724.2      -1.02E-05
724.4      1.46E-05
724.6      3.09E-06
724.8      1.13E-05
725.0      -7.31E-06
725.2      1.52E-05
725.4      -1.36E-06
725.6      1.91E-05
725.8      1.56E-05
726.0      -2.61E-06
726.2      1.93E-05
726.4      1.00E-06
726.6      2.31E-06
726.8      1.12E-06
727.0      2.84E-05
727.2      -2.64E-06
727.4      4.93E-06
727.6      8.65E-06
727.8      8.70E-06
728.0      -1.35E-06
728.2      1.39E-05
728.4      3.38E-06
728.6      -1.21E-05
728.8      1.31E-05
729.0      3.33E-05
729.2      -9.85E-06
729.4      -6.21E-06
729.6      2.28E-06
729.8      -6.26E-06
730.0      1.70E-05
730.2      -6.33E-06
730.4      -3.84E-06
730.6      -1.39E-06
730.8      -1.34E-06
731.0      -2.41E-05
731.2      -1.41E-05
731.4      -1.73E-05
731.6      -3.16E-06
731.8      -1.44E-05
732.0      -4.83E-06
732.2      -3.71E-06
732.4      1.06E-05
732.6      2.29E-06
732.8      4.59E-06
733.0      -1.42E-06
733.2      2.31E-06
733.4      -9.94E-06
733.6      2.19E-06
733.8      2.29E-06
734.0      2.34E-05
734.2      7.29E-06
734.4      8.63E-06
734.6      -5.21E-06
734.8      8.69E-06
735.0      -7.22E-08
735.2      1.91E-06
735.4      -3.72E-06
735.6      2.25E-06
735.8      -7.29E-06
736.0      -6.14E-06
736.2      -1.34E-05
736.4      7.08E-06
736.6      -1.72E-05
736.8      -1.24E-05
737.0      -1.25E-05
737.2      -9.97E-06
737.4      1.22E-05
737.6      2.10E-05
737.8      9.83E-06
738.0      -1.93E-07
738.2      9.89E-06
738.4      2.27E-05
738.6      -8.20E-06
738.8      -9.30E-06
739.0      1.06E-06
739.2      -1.21E-05
739.4      -2.61E-06
739.6      -3.82E-06
739.8      5.84E-06
740.0      1.93E-05
740.2      8.40E-06
740.4      -1.49E-05
740.6      -1.12E-05
740.8      -8.80E-06
741.0      3.50E-06
741.2      -1.04E-07
741.4      1.99E-05
741.6      -8.92E-06
741.8      -7.82E-06
742.0      7.50E-06
742.2      -1.14E-05
742.4      -2.41E-05
742.6      8.09E-06
742.8      -1.09E-07
743.0      2.26E-05
743.2      -6.20E-06
743.4      -1.35E-05
743.6      1.20E-05
743.8      1.08E-05
744.0      -6.30E-06
744.2      -1.50E-06
744.4      -8.75E-06
744.6      -7.61E-06
744.8      -1.39E-05
745.0      -8.90E-06
745.2      -1.41E-07
745.4      3.63E-06
745.6      6.24E-06
745.8      -7.81E-06
746.0      -4.08E-06
746.2      1.29E-05
746.4      1.54E-05
746.6      -9.68E-06
746.8      3.44E-06
747.0      -2.79E-05
747.2      8.37E-06
747.4      -1.84E-05
747.6      4.74E-06
747.8      -2.66E-06
748.0      -3.83E-06
748.2      -1.70E-07
748.4      7.31E-06
748.6      -1.56E-07
748.8      2.24E-05
749.0      6.23E-06
749.2      -3.98E-06
749.4      1.26E-05
749.6      1.45E-05
749.8      5.65E-06
750.0      5.30E-06
750.2      1.04E-06
750.4      1.90E-05
750.6      5.85E-06
750.8      4.64E-06
751.0      2.67E-05
751.2      1.33E-05
751.4      -2.10E-05
751.6      -5.06E-06
751.8      1.35E-05
752.0      -5.15E-06
752.2      1.11E-05
752.4      3.62E-06
752.6      -2.69E-06
752.8      1.10E-06
753.0      -6.56E-06
753.2      1.65E-05
753.4      -5.17E-06
753.6      -4.48E-06
753.8      4.59E-06
754.0      1.43E-05
754.2      3.55E-06
754.4      1.32E-05
754.6      -2.57E-06
754.8      5.91E-06
755.0      2.21E-06
755.2      2.28E-06
755.4      1.35E-05
755.6      2.11E-05
755.8      3.52E-06
756.0      -1.65E-05
756.2      -1.02E-05
756.4      -5.29E-06
756.6      -2.43E-05
756.8      -6.59E-06
757.0      3.73E-06
757.2      5.59E-07
757.4      1.77E-05
757.6      1.54E-05
757.8      3.47E-05
758.0      2.40E-05
758.2      2.26E-06
758.4      -2.58E-06
758.6      2.30E-06
758.8      1.22E-05
759.0      -2.61E-06
759.2      1.11E-06
759.4      -8.89E-06
759.6      -2.15E-05
759.8      -6.49E-06
760.0      -2.82E-05
760.2      2.47E-06
760.4      -1.05E-05
760.6      -1.51E-06
760.8      4.59E-05
761.0      -6.42E-06
761.2      3.85E-06
761.4      3.00E-05
761.6      1.44E-05
761.8      1.44E-05
762.0      -3.79E-06
762.2      -1.35E-06
762.4      -8.82E-06
762.6      -2.00E-05
762.8      2.83E-05
763.0      -1.37E-06
763.2      2.24E-05
763.4      1.86E-05
763.6      2.38E-05
763.8      -2.17E-05
764.0      8.84E-06
764.2      1.13E-06
764.4      1.38E-05
764.6      1.72E-06
764.8      2.09E-05
765.0      -6.61E-06
765.2      -2.00E-06
765.4      8.22E-06
765.6      2.29E-06
765.8      2.05E-05
766.0      2.67E-05
766.2      2.07E-05
766.4      -2.05E-07
766.6      -1.93E-07
766.8      -2.01E-05
767.0      -1.76E-05
767.2      2.49E-05
767.4      -7.64E-06
767.6      -1.02E-05
767.8      3.53E-05
768.0      6.19E-06
768.2      1.13E-05
768.4      -7.84E-06
768.6      3.85E-05
768.8      -3.93E-06
769.0      -1.38E-05
769.2      1.37E-05
769.4      -9.93E-06
769.6      1.19E-05
769.8      3.03E-05
770.0      -3.78E-06
770.2      -2.66E-06
770.4      2.34E-06
770.6      1.84E-05
770.8      1.48E-05
771.0      5.90E-06
771.2      -7.69E-06
771.4      -5.15E-06
771.6      -5.22E-06
771.8      -1.94E-05
772.0      1.65E-05
772.2      4.96E-06
772.4      -2.67E-06
772.6      -7.94E-06
772.8      1.12E-05
773.0      -8.63E-06
773.2      3.12E-05
773.4      -2.20E-05
773.6      7.13E-06
773.8      -2.59E-06
774.0      -1.36E-05
774.2      6.02E-06
774.4      1.10E-05
774.6      9.84E-06
774.8      2.37E-06
775.0      -1.90E-05
775.2      3.60E-06
775.4      1.12E-06
775.6      -1.15E-05
775.8      8.77E-06
776.0      -1.68E-05
776.2      -2.69E-06
776.4      7.62E-06
776.6      1.28E-05
776.8      -9.18E-06
777.0      1.93E-06
777.2      -5.47E-06
777.4      1.19E-05
777.6      2.30E-05
777.8      1.09E-05
778.0      -1.07E-07
778.2      -1.48E-05
778.4      6.01E-06
778.6      1.11E-05
778.8      -1.63E-05
779.0      -2.54E-06
779.2      -1.14E-05
779.4      -1.52E-05
779.6      -2.62E-06
779.8      1.39E-05
780.0      -7.85E-06
780.2      2.48E-06
780.4      6.25E-06
780.6      -1.42E-06
780.8      -1.44E-06
781.0      1.68E-05
781.2      -7.59E-06
781.4      1.85E-05
781.6      -1.30E-05
781.8      9.42E-06
782.0      -7.43E-06
782.2      1.09E-05
782.4      -1.00E-05
782.6      2.83E-05
782.8      7.21E-06
783.0      -2.52E-05
783.2      -3.52E-05
783.4      3.02E-05
783.6      1.00E-05
783.8      -1.17E-05
784.0      -1.54E-05
784.2      -3.09E-05
784.4      -1.05E-05
784.6      -1.94E-05
784.8      -1.95E-05
785.0      3.11E-05
785.2      -5.48E-06
785.4      -3.28E-06
785.6      -1.24E-05
785.8      1.81E-05
786.0      1.20E-05
786.2      1.45E-05
786.4      1.09E-05
786.6      2.57E-05
786.8      -1.51E-07
787.0      -4.01E-06
787.2      -2.39E-05
787.4      -1.52E-05
787.6      3.58E-06
787.8      1.76E-05
788.0      -8.96E-06
788.2      1.65E-05
788.4      2.30E-05
788.6      -9.05E-06
788.8      -1.69E-05
789.0      -1.43E-06
789.2      6.40E-06
789.4      -3.67E-05
789.6      -1.46E-05
789.8      2.81E-05
790.0      -4.01E-06
790.2      -1.46E-05
790.4      -2.95E-05
790.6      -4.06E-05
790.8      -1.12E-05
791.0      2.81E-05
791.2      7.28E-06
791.4      4.20E-05
791.6      -1.40E-06
791.8      1.73E-05
792.0      -1.79E-05
792.2      -1.90E-05
792.4      7.46E-06
792.6      1.25E-05
792.8      2.02E-05
793.0      -1.16E-05
793.2      -1.06E-05
793.4      2.47E-06
793.6      1.16E-05
793.8      -1.46E-06
794.0      1.95E-05
794.2      -1.37E-06
794.4      -1.60E-05
794.6      4.07E-06
794.8      1.03E-05
795.0      -2.84E-05
795.2      2.32E-05
795.4      2.25E-06
795.6      -3.89E-08
795.8      -1.88E-05
796.0      -1.64E-05
796.2      2.49E-05
796.4      1.75E-05
796.6      1.25E-05
796.8      1.14E-06
797.0      -1.28E-05
797.2      6.14E-06
797.4      9.98E-06
797.6      4.97E-06
797.8      1.52E-05
798.0      1.01E-05
798.2      -7.86E-06
798.4      -3.00E-05
798.6      -6.71E-06
798.8      -2.12E-05
799.0      1.03E-05
799.2      1.70E-05
799.4      -3.71E-05
799.6      6.51E-06
799.8      6.56E-06
800.0      -1.80E-05
800.2      -3.82E-05
800.4      1.38E-05
800.6      -1.92E-05
800.8      -1.03E-05
801.0      -5.27E-06
801.2      3.86E-06
801.4      -3.95E-06
801.6      -3.47E-05
801.8      -2.71E-05
802.0      -2.07E-05
802.2      -4.01E-06
802.4      -2.60E-05
802.6      2.17E-05
802.8      1.66E-05
803.0      1.53E-05
803.2      1.53E-05
803.4      -1.57E-05
803.6      1.80E-05
803.8      4.55E-05
804.0      3.61E-06
804.2      7.64E-06
804.4      2.59E-05
804.6      -1.19E-05
804.8      3.66E-05
805.0      5.21E-05
805.2      -9.42E-06
805.4      -3.04E-05
805.6      1.03E-05
805.8      -8.12E-06
806.0      5.13E-06
806.2      -1.74E-05
806.4      1.15E-05
806.6      1.82E-05
806.8      1.23E-05
807.0      -6.82E-06
807.2      -2.17E-05
807.4      -1.73E-05
807.6      -3.07E-05
807.8      -8.68E-06
808.0      -1.62E-05
808.2      2.94E-05
808.4      3.58E-06
808.6      2.85E-05
808.8      -2.40E-05
809.0      2.61E-05
809.2      2.25E-05
809.4      3.61E-05
809.6      -8.88E-06
809.8      -1.46E-06
810.0      1.86E-05
810.2      -1.16E-05
810.4      -2.92E-05
810.6      -2.41E-05
810.8      9.85E-06
811.0      4.18E-05
811.2      -3.22E-05
811.4      -5.33E-06
811.6      1.92E-05
811.8      5.39E-05
812.0      -1.83E-05
812.2      -3.26E-05
812.4      -1.83E-05
812.6      -4.18E-05
812.8      -3.02E-05
813.0      -1.71E-05
813.2      -1.86E-05
813.4      -1.62E-05
813.6      -3.16E-06
813.8      2.91E-05
814.0      1.21E-05
814.2      2.43E-05
814.4      2.81E-05
814.6      -1.25E-05
814.8      2.29E-06
815.0      -4.24E-05
815.2      -4.08E-08
815.4      -2.65E-06
815.6      1.49E-05
815.8      -6.34E-06
816.0      1.62E-05
816.2      2.27E-05
816.4      -4.16E-06
816.6      -5.77E-05
816.8      1.92E-05
817.0      -2.96E-05
817.2      -4.93E-05
817.4      -1.84E-05
817.6      6.17E-06
817.8      -1.30E-06
818.0      4.31E-05
818.2      5.13E-06
818.4      -4.50E-05
818.6      2.43E-05
818.8      -1.37E-05
819.0      3.66E-06
819.2      4.28E-05
819.4      3.60E-06
819.6      1.23E-05
819.8      -1.01E-05
820.0      -1.89E-05
820.2      1.25E-05
820.4      3.03E-05
820.6      1.91E-05
820.8      2.03E-05
821.0      -6.57E-06
821.2      3.98E-05
821.4      2.20E-05
821.6      2.22E-05
821.8      1.72E-05
822.0      3.72E-05
822.2      -1.59E-05
822.4      4.16E-05
822.6      2.34E-05
822.8      3.09E-05
823.0      5.84E-05
823.2      3.63E-06
823.4      8.71E-06
823.6      -2.81E-05
823.8      3.57E-06
824.0      1.26E-06
824.2      1.41E-05
824.4      -2.87E-05
824.6      9.02E-06
824.8      1.15E-06
825.0      2.24E-05
825.2      -2.15E-05
825.4      -1.75E-05
825.6      -8.86E-06
825.8      6.10E-06
826.0      1.96E-05
826.2      -1.62E-05
826.4      1.62E-05
826.6      -1.76E-05
826.8      2.50E-06
827.0      -2.31E-05
827.2      -2.19E-05
827.4      5.17E-05
827.6      3.37E-05
827.8      3.16E-05
828.0      -6.38E-07
828.2      3.76E-05
828.4      5.92E-06
828.6      5.04E-05
828.8      -5.04E-06
829.0      -3.17E-05
829.2      3.69E-05
829.4      3.06E-05
829.6      1.94E-05
829.8      -3.82E-05
830.0      -1.91E-05
830.2      2.17E-05
830.4      -2.94E-05
830.6      1.97E-05
830.8      -3.58E-07
831.0      1.37E-05
831.2      -1.30E-05
831.4      1.27E-05
831.6      2.76E-05
831.8      2.13E-05
832.0      6.73E-05
832.2      7.07E-06
832.4      -1.23E-07
832.6      2.62E-05
832.8      -5.56E-05
833.0      1.38E-05
833.2      -7.81E-06
833.4      -2.08E-05
833.6      2.19E-05
833.8      3.00E-05
834.0      6.19E-05
834.2      1.21E-05
834.4      3.35E-05
834.6      -4.01E-05
834.8      6.98E-05
835.0      -3.79E-06
835.2      1.70E-05
835.4      -0.000103769
835.6      7.17E-05
835.8      -2.70E-05
836.0      8.61E-06
836.2      -8.76E-06
836.4      -7.35E-05
836.6      4.47E-05
836.8      -5.93E-06
837.0      1.92E-05
837.2      7.30E-06
837.4      6.02E-05
837.6      -2.37E-05
837.8      5.95E-05
838.0      1.32E-05
838.2      0.000115249
838.4      6.29E-05
838.6      8.75E-05
838.8      -4.04E-05
839.0      5.33E-05
839.2      5.01E-05
839.4      -4.36E-05
839.6      2.13E-06
839.8      -5.47E-05
840.0      -6.03E-05
840.2      3.28E-05
840.4      -2.35E-05
840.6      8.15E-05
840.8      5.06E-05
841.0      3.05E-05
841.2      -6.16E-05
841.4      0.000110835
841.6      -0.000105769
841.8      5.92E-05
842.0      -3.81E-06
842.2      -7.88E-05
842.4      -3.30E-05
842.6      -6.33E-05
842.8      8.56E-05
843.0      8.94E-05
843.2      -4.72E-05
843.4      9.38E-05
843.6      4.84E-05
843.8      -0.000154069
844.0      9.62E-06
844.2      0.000146964
844.4      -5.30E-05
844.6      -0.000104677
844.8      -6.79E-05
845.0      -0.000151559
845.2      -1.11E-05
845.4      -3.64E-05
845.6      1.09E-05
845.8      -8.48E-06
846.0      -1.98E-05
846.2      7.49E-05
846.4      -0.000174834
846.6      -0.000126492
846.8      4.65E-05
847.0      2.86E-05
847.2      1.88E-05
847.4      -2.92E-05
847.6      -0.000215258
847.8      -8.93E-05
848.0      -0.000146725
848.2      2.46E-06
848.4      3.06E-05
848.6      -0.000126525
848.8      -6.43E-05
849.0      1.79E-05
849.2      -0.000100854
849.4      9.16E-05
849.6      -8.03E-05
849.8      4.01E-05
850.0      5.53E-05
850.2      9.10E-05
850.4      8.28E-05
850.6      7.58E-06
850.8      1.98E-05
851.0      -2.54E-05
851.2      -8.04E-05
851.4      -6.91E-05
851.6      0.000261841
851.8      -0.000345231
852.0      -8.64E-05
852.2      -0.000199497
852.4      -2.12E-05
852.6      -9.27E-05
852.8      5.00E-05
853.0      -9.00E-05
853.2      8.02E-05
853.4      -0.000125912
853.6      2.75E-05
853.8      -0.000132186
854.0      0.000124748
854.2      6.58E-05
854.4      8.93E-05
854.6      -6.00E-05
854.8      0.000102042
855.0      -4.21E-05
855.2      -3.77E-05
855.4      -0.000108082
855.6      0.000126143
855.8      -4.87E-05
856.0      6.99E-05
856.2      0.000119566
856.4      -0.000112851
856.6      3.24E-05
856.8      0.000178698
857.0      7.18E-05
857.2      2.24E-05
857.4      -0.000330463
857.6      0.000415891
857.8      -3.39E-05
858.0      0.000202647
858.2      0.000118208
858.4      -0.000219641
858.6      8.50E-05
858.8      -0.000223011
859.0      -3.04E-05
859.2      0.000110196
859.4      -7.70E-05
859.6      0.000125924
859.8      -0.000149954
860.0      0.000353171
860.2      -6.79E-05
860.4      -0.000170431
860.6      -0.000177687
860.8      0.00070361
861.0      3.48E-05
861.2      -0.00038319
861.4      -0.000643423
861.6      -1.51E-05
861.8      -6.35E-05
862.0      -9.18E-06
862.2      0.000738023
862.4      -0.00016218
862.6      -7.61E-05
862.8      1.56E-05
863.0      0.00019713
863.2      0.000448598
863.4      -0.000133862
863.6      -4.16E-05
863.8      -0.000315264
864.0      -0.000324027
864.2      -0.000312496
864.4      0.000563527
864.6      -0.000688829
864.8      -5.62E-05
865.0      -0.000643246
865.2      -0.000179061
865.4      -0.000300359
865.6      -1.81E-05
865.8      0.000784424
866.0      0.000179384
866.2      0.000256081
866.4      -0.000210521
866.6      8.06E-05
866.8      0.00032259
867.0      0.000356197
867.2      -0.000568706
867.4      0.00019243
867.6      8.21E-05
867.8      0.000214218
868.0      0.000388325
868.2      -0.000525034
868.4      0.000136082
868.6      -0.000148351
868.8      -0.000385728
869.0      0.000313378
869.2      -0.000623785
869.4      0.000660512
869.6      0.00036871
869.8      0.000107435
870.0      0.000283179
870.2      -0.000619138
870.4      0.001016824
870.6      -4.92E-05
870.8      -0.00101754
871.0      -0.000681835
871.2      8.10E-05
871.4      0.000244777
871.6      -0.000945094
871.8      -0.000619306
872.0      -0.000213949
872.2      0.000422874
872.4      -0.000368468
872.6      -5.85E-05
872.8      0.000444727
873.0      -0.001039102
873.2      0.001499468
873.4      -0.000143555
873.6      -0.000980638
873.8      -0.001007993
874.0      0.000552633
874.2      0.000781649
874.4      -0.00063655
874.6      0.000594102
874.8      -0.000560141
875.0      -0.000773125
875.2      0.000846664
875.4      0.0012008
875.6      0.000557012
875.8      -0.000126944
876.0      -0.001215365
876.2      0.001434466
876.4      -0.000817619
876.6      0.000461339
876.8      -0.000113592
877.0      -0.001225785
877.2      -0.000634459
877.4      -0.000127951
877.6      0.000369608
877.8      -0.003178025
878.0      -0.002641961
878.2      -0.001216316
878.4      0.00044595
878.6      9.96E-05
878.8      -0.003144397
879.0      0.001133288
879.2      2.57E-05
879.4      -0.000957471
879.6      -0.001219885
879.8      0.000384077
880.0      -0.000328252
880.2      -0.002213238
880.4      -0.000472053
880.6      -0.001968126
880.8      -0.001955966
881.0      0.002438851
881.2      0.000731529
881.4      -0.00116463
881.6      0.002735191
881.8      0.001949869
882.0      0.002926688
882.2      0.000100146
882.4      -0.00270736
882.6      0.000269544
882.8      8.40E-05
883.0      0.001060404
883.2      0.003113255
883.4      0.00177614
883.6      0.002460844
883.8      -0.001826229
884.0      -0.000208135
884.2      -8.18E-05
884.4      -5.91E-05
884.6      0.003206606
884.8      -0.000842901
885.0      0.000612709
885.2      -0.000269557
885.4      -0.000670112
885.6      -0.001367327
885.8      0.001093589
886.0      0.000530029
886.2      -0.001046135
886.4      -0.003533845
886.6      -0.001841251
886.8      0.000323984
887.0      0.002130375
887.2      0.002147499
887.4      0.00140756
887.6      -0.000716396
887.8      -0.001595607
888.0      -0.004256628
888.2      -0.003230293
888.4      -0.004399031
888.6      0.003679869
888.8      -0.001066071
889.0      0.001584373
889.2      -0.003737124
889.4      0.002201155
889.6      -0.000793814
889.8      -0.004761839
890.0      -0.00023067
890.2      0.002905788
890.4      -0.004908019
890.6      0.006057842
890.8      -0.001143382
891.0      0.00102769
891.2      -0.005194757
891.4      -0.004599306
891.6      -0.000370374
891.8      -0.003506502
892.0      0.004949989
892.2      -0.003922985
892.4      0.002636673
892.6      0.004946025
892.8      -7.27E-05
893.0      -0.004685374
893.2      0.002748664
893.4      -0.00415761
893.6      0.00253248
893.8      0.004609501
894.0      0.003577059
894.2      0.002245853
894.4      -0.003129162
894.6      -0.004098587
894.8      -0.00162303
895.0      0.001729172
895.2      -0.002249042
895.4      0.004940823
895.6      -0.00354067
895.8      -0.002819732
896.0      0.008287901
896.2      -0.005457234
896.4      0.000683387
896.6      -0.000758048
896.8      -0.004260994
897.0      0.000629232
897.2      0.003131544
897.4      0.004109911
897.6      -0.002532342
897.8      -0.005325514
898.0      0.0089757
898.2      -0.002911877
898.4      0.007082167
898.6      -0.005471513
898.8      0.003129413
899.0      0.003656906
899.2      0.00195415
899.4      0.002071001
899.6      0.001710796
899.8      -0.001155133
900.0      -4.73E-05
900.2      0.000344746
900.4      4.16E-06
900.6      0.000561618
900.8      0.00036753
901.0      -0.000181994
901.2      -0.000213887
901.4      0.000281689
901.6      -4.95E-05
901.8      0.000308082
902.0      -0.000563926
902.2      -7.25E-05
902.4      -7.24E-05
902.6      0.000435748
902.8      -4.81E-05
903.0      0.000186669
903.2      0.000212595
903.4      -0.000128368
903.6      3.12E-05
903.8      0.00026157
904.0      0.000135289
904.2      0.000110082
904.4      9.66E-06
904.6      0.000181734
904.8      -0.000429077
905.0      0.000174915
905.2      -9.46E-05
905.4      0.000251984
905.6      5.87E-06
905.8      2.76E-05
906.0      -7.39E-05
906.2      0.000125649
906.4      -0.000146529
906.6      0.000174894
906.8      0.000394097
907.0      0.000174917
907.2      0.000245507
907.4      -0.000236665
907.6      2.71E-05
907.8      -0.000163476
908.0      9.79E-05
908.2      0.000215338
908.4      0.000330172
908.6      -0.000415979
908.8      -0.000183833
909.0      -0.000227713
909.2      -0.000222583
909.4      5.20E-05
909.6      0.000277732
909.8      0.000387027
910.0      -0.000288383
910.2      0.00027387
910.4      -4.20E-05
910.6      8.90E-05
910.8      8.79E-05
911.0      -6.29E-05
911.2      -0.00013261
911.4      -0.000130632
911.6      0.000242302
911.8      0.000285936
912.0      1.11E-06
912.2      -0.000103973
912.4      0.000176491
912.6      0.00015673
912.8      0.000133919
913.0      8.50E-05
913.2      -5.89E-05
913.4      0.000212196
913.6      -0.000126311
913.8      0.000106251
914.0      0.000212593
914.2      0.000191292
914.4      -8.21E-05
914.6      -0.00012152
914.8      0.000228992
915.0      0.000249565
915.2      0.000388784
915.4      0.000202976
915.6      2.46E-05
915.8      -0.000200647
916.0      -5.76E-05
916.2      0.000204405
916.4      0.000238807
916.6      0.000202994
916.8      2.29E-05
917.0      3.88E-05
917.2      -1.60E-05
917.4      1.00E-04
917.6      0.000121628
917.8      -0.000465968
918.0      -9.61E-05
918.2      8.26E-05
918.4      2.02E-05
918.6      0.000331628
918.8      2.92E-06
919.0      0.000214457
919.2      0.000153468
919.4      0.00019031
919.6      -0.000132028
919.8      0.000244979
920.0      0.000187229
920.2      -7.30E-05
920.4      -0.000162525
920.6      0.000295362
920.8      0.000185494
921.0      0.000182688
921.2      0.000240959
921.4      -3.28E-05
921.6      -0.000212324
921.8      0.000112162
922.0      0.000274496
922.2      0.000287441
922.4      0.000103766
922.6      0.0001975
922.8      -5.03E-05
923.0      -1.60E-05
923.2      -5.10E-05
923.4      -6.84E-05
923.6      -0.000101283
923.8      7.21E-05
924.0      0.000352462
924.2      0.000225806
924.4      -0.000172615
924.6      0.000174951
924.8      -3.40E-05
925.0      -0.00011691
925.2      0.000172982
925.4      9.01E-05
925.6      -0.000168851
925.8      0.000134242
926.0      0.000184426
926.2      0.00018595
926.4      8.42E-05
926.6      -3.12E-05
926.8      5.26E-05
927.0      3.55E-05
927.2      0.000102155
927.4      0.000133283
927.6      0.000152912
927.8      -0.000116828
928.0      0.000278582
928.2      0.000273373
928.4      -4.79E-05
928.6      4.88E-05
928.8      1.71E-05
929.0      -0.000125054
929.2      -4.67E-05
929.4      -4.43E-05
929.6      0.00020927
929.8      1.62E-05
930.0      0.000270146
930.2      -9.41E-05
930.4      9.63E-05
930.6      0.0001411
930.8      6.28E-05
931.0      -0.00010754
931.2      1.71E-05
931.4      0.000138791
931.6      -1.63E-06
931.8      9.05E-05
932.0      -4.53E-05
932.2      0.000215998
932.4      0.00019937
932.6      4.68E-05
932.8      4.62E-05
933.0      -6.06E-05
933.2      0.000104887
933.4      0.000136144
933.6      0.000135596
933.8      7.30E-05
934.0      0.000193793
934.2      0.000210651
934.4      -0.000117618
934.6      1.53E-05
934.8      0.000132436
935.0      0.000147763
935.2      0.00014585
935.4      1.39E-05
935.6      1.66E-05
935.8      0.000216547
936.0      0.000100222
936.2      0.000158587
936.4      0.000186584
936.6      0.000117163
936.8      2.71E-05
937.0      -7.98E-07
937.2      0.000158244
937.4      5.72E-05
937.6      -2.72E-05
937.8      -8.37E-05
938.0      1.15E-05
938.2      0.000156086
938.4      0.000156091
938.6      -2.81E-05
938.8      -0.000167296
939.0      5.49E-05
939.2      1.37E-05
939.4      -5.55E-05
939.6      1.38E-05
939.8      8.22E-05
940.0      7.04E-05
940.2      0.000151133
940.4      2.71E-05
940.6      9.48E-05
940.8      0.000120428
941.0      0.000212192
941.2      0.000135798
941.4      -9.98E-06
941.6      0.000135511
941.8      -1.34E-06
942.0      -0.000107716
942.2      -2.89E-05
942.4      7.95E-05
942.6      0.000239286
942.8      4.11E-05
943.0      0.000133596
943.2      -1.63E-05
943.4      -8.38E-05
943.6      -0.000159868
943.8      0.000144288
944.0      0.0002458
944.2      0.000298481
944.4      0.000390556
944.6      -0.000180866
944.8      -0.000155457
945.0      -1.71E-06
945.2      -2.22E-06
945.4      5.33E-05
945.6      -1.20E-05
945.8      0.000343063
946.0      0.000177403
946.2      -1.49E-05
946.4      6.13E-05
946.6      -0.00010236
946.8      -4.07E-05
947.0      -0.000137404
947.2      0.000137027
947.4      0.000196609
947.6      0.00015932
947.8      0.000159333
948.0      0.000331588
948.2      -0.000112724
948.4      -2.63E-05
948.6      -7.61E-05
948.8      -0.000125095
949.0      9.53E-05
949.2      0.000277988
949.4      0.00010796
949.6      -2.53E-05
949.8      -0.000109042
950.0      0.000105845
950.2      -4.33E-07
950.4      0.000223623
950.6      -0.000134167
950.8      2.15E-05
951.0      0.000142076
951.2      0.000163324
951.4      -0.000202371
951.6      -7.24E-05
951.8      8.00E-05
952.0      7.99E-05
952.2      7.83E-05
952.4      -5.00E-05
952.6      -0.000153159
952.8      0.000196733
953.0      0.000181814
953.2      -3.56E-05
953.4      -1.43E-05
953.6      8.75E-05
953.8      0.000168689
954.0      6.78E-05
954.2      3.25E-05
954.4      0.000340681
954.6      0.0001361
954.8      0.000145933
955.0      -8.09E-05
955.2      -5.77E-05
955.4      -2.47E-05
955.6      6.39E-05
955.8      5.51E-05
956.0      2.05E-05
956.2      -3.49E-05
956.4      9.91E-06
956.6      -2.29E-05
956.8      -1.29E-05
957.0      1.95E-05
957.2      3.17E-05
957.4      0.000208606
957.6      -1.48E-05
957.8      9.73E-05
958.0      -2.41E-05
958.2      5.06E-05
958.4      0.00012941
958.6      -1.18E-06
958.8      9.44E-05
959.0      -0.000177381
959.2      2.94E-05
959.4      0.000138428
959.6      5.06E-05
959.8      8.30E-05
960.0      9.43E-05
960.2      6.29E-05
960.4      -6.77E-05
960.6      -0.000100333
960.8      -3.39E-05
961.0      -3.44E-05
961.2      0.00025059
961.4      0.000134032
961.6      0.000155905
961.8      8.35E-06
962.0      5.89E-05
962.2      8.89E-06
962.4      3.81E-05
962.6      4.07E-05
962.8      1.89E-05
963.0      -8.45E-05
963.2      -3.35E-05
963.4      4.99E-05
963.6      9.12E-05
963.8      3.85E-05
964.0      0.000120696
964.2      -2.09E-05
964.4      -4.13E-05
964.6      8.15E-06
964.8      -5.17E-05
965.0      -4.11E-05
965.2      0.000179952
965.4      5.97E-05
965.6      6.06E-05
965.8      0.000170343
966.0      0.000130097
966.2      2.88E-05
966.4      8.80E-05
966.6      1.84E-05
966.8      6.93E-05
967.0      0.000257446
967.2      0.000127698
967.4      9.72E-05
967.6      4.76E-05
967.8      -0.000188789
968.0      4.84E-05
968.2      7.81E-05
968.4      8.58E-05
968.6      0.000262727
968.8      6.78E-05
969.0      9.64E-05
969.2      0.000125262
969.4      -8.73E-06
969.6      1.79E-05
969.8      0.000229843
970.0      0.000125593
970.2      0.000124804
970.4      0.000114287
970.6      -6.77E-05
970.8      8.44E-05
971.0      -0.000106065
971.2      -2.09E-05
971.4      1.75E-05
971.6      0.000189983
971.8      7.40E-05
972.0      0.000266217
972.2      7.45E-05
972.4      9.30E-05
972.6      -6.76E-05
972.8      -7.70E-05
973.0      0.000119773
973.2      0.000102149
973.4      4.50E-05
973.6      2.68E-05
973.8      0.000109417
974.0      4.51E-05
974.2      0.000118699
974.4      0.000248725
974.6      0.000111184
974.8      6.31E-05
975.0      0.000136419
975.2      3.49E-05
975.4      0.000108014
975.6      6.31E-05
975.8      -2.91E-05
976.0      4.48E-05
976.2      -1.78E-05
976.4      6.25E-05
976.6      0.00015289
976.8      0.000107332
977.0      -2.09E-06
977.2      0.000116207
977.4      0.000125228
977.6      7.99E-06
977.8      3.56E-05
978.0      0.000133444
978.2      1.64E-05
978.4      3.43E-05
978.6      2.52E-05
978.8      0.000157436
979.0      -2.89E-05
979.2      0.000122916
979.4      0.000184038
979.6      0.000104828
979.8      5.15E-05
980.0      1.54E-05
980.2      5.55E-06
980.4      -2.43E-06
980.6      6.81E-05
980.8      5.93E-05
981.0      0.000111365
981.2      1.63E-05
981.4      0.000129503
981.6      0.0001102
981.8      0.000170538
982.0      8.35E-05
982.2      8.35E-05
982.4      4.25E-05
982.6      -1.14E-06
982.8      -2.54E-06
983.0      4.11E-05
983.2      9.98E-05
983.4      0.000278641
983.6      5.85E-05
983.8      -6.88E-05
984.0      4.16E-05
984.2      8.67E-06
984.4      -1.80E-05
984.6      9.88E-05
984.8      2.21E-05
985.0      6.54E-05
985.2      -1.94E-05
985.4      0.000241733
985.6      0.000282339
985.8      4.84E-05
986.0      -4.34E-05
986.2      -3.61E-05
986.4      -1.08E-05
986.6      7.28E-05
986.8      0.000197163
987.0      4.72E-05
987.2      1.31E-05
987.4      1.33E-05
987.6      4.00E-05
987.8      -4.24E-05
988.0      7.96E-05
988.2      0.000163059
988.4      0.000136442
988.6      6.27E-05
988.8      7.19E-05
989.0      4.59E-05
989.2      9.46E-05
989.4      3.83E-05
989.6      0.000127397
989.8      0.000160488
990.0      5.38E-05
990.2      2.30E-05
990.4      0.000103022
990.6      7.03E-05
990.8      2.83E-05
991.0      -1.92E-05
991.2      0.000140593
991.4      0.000202805
991.6      7.72E-05
991.8      0.000141612
992.0      0.000148031
992.2      5.25E-06
992.4      0.000139257
992.6      0.000122828
992.8      3.67E-05
993.0      2.69E-05
993.2      2.10E-05
993.4      7.54E-05
993.6      4.35E-05
993.8      9.15E-05
994.0      3.66E-05
994.2      8.21E-05
994.4      2.82E-05
994.6      -8.55E-05
994.8      8.11E-05
995.0      1.96E-05
995.2      1.35E-05
995.4      0.00010552
995.6      0.000119918
995.8      -2.65E-06
996.0      0.000134061
996.2      0.00011188
996.4      0.000164884
996.6      0.000126167
996.8      5.72E-05
997.0      0.000133292
997.2      8.84E-05
997.4      0.000139763
997.6      -8.68E-06
997.8      0.000232292
998.0      0.000154779
998.2      0.00010068
998.4      0.000124557
998.6      0.00013032
998.8      0.000160955
999.0      0.000160126
999.2      2.08E-05
999.4      -7.68E-05
999.6      5.65E-05
999.8      0.000219032
1000.0      0.000122082
1000.2      6.44E-05
1000.4      7.12E-05
1000.6      0.000209662
1000.8      0.000171708
1001.0      0.000121504
1001.2      5.62E-05
1001.4      2.68E-05
1001.6      0.000165048
1001.8      0.000133966
1002.0      0.000221385
1002.2      0.00013438
1002.4      1.83E-05
1002.6      0.000148581
1002.8      0.000119316
1003.0      0.000111783
1003.2      0.000112793
1003.4      7.55E-05
1003.6      0.000153872
1003.8      0.000110878
1004.0      6.07E-05
1004.2      9.64E-05
1004.4      0.000103061
1004.6      0.000117348
1004.8      6.09E-05
1005.0      5.35E-05
1005.2      6.60E-05
1005.4      0.000115962
1005.6      0.000145371
1005.8      0.000102488
1006.0      0.000191881
1006.2      9.37E-05
1006.4      3.89E-05
1006.6      0.000108841
1006.8      8.12E-05
1007.0      0.000149646
1007.2      0.000182943
1007.4      9.36E-05
1007.6      0.000127705
1007.8      0.000156088
1008.0      7.28E-05
1008.2      0.00014092
1008.4      2.50E-05
1008.6      7.90E-05
1008.8      0.000194648
1009.0      0.000158531
1009.2      5.92E-05
1009.4      0.000126285
1009.6      7.87E-05
1009.8      0.000172879
1010.0      0.000117568
1010.2      0.000204392
1010.4      0.000144167
1010.6      0.00011805
1010.8      0.000111687
1011.0      0.000166011
1011.2      0.000158121
1011.4      0.000144467
1011.6      0.000217328
1011.8      0.000117058
1012.0      0.000130911
1012.2      0.000235332
1012.4      0.000187782
1012.6      0.000102331
1012.8      3.09E-05
1013.0      2.42E-05
1013.2      0.000148914
1013.4      0.000122504
1013.6      0.00016791
1013.8      0.000240365
1014.0      0.000135157
1014.2      7.60E-05
1014.4      8.19E-05
1014.6      0.000140226
1014.8      0.000140617
1015.0      0.000140345
1015.2      0.000192008
1015.4      0.000185552
1015.6      0.000140416
1015.8      2.18E-05
1016.0      0.000216997
1016.2      -2.16E-06
1016.4      0.000208342
1016.6      6.75E-05
1016.8      0.000105919
1017.0      9.41E-05
1017.2      0.000164329
1017.4      0.000107277
1017.6      8.02E-05
1017.8      0.000124931
1018.0      9.98E-05
1018.2      5.45E-05
1018.4      0.000142834
1018.6      0.000168088
1018.8      0.00013578
1019.0      0.000153608
1019.2      0.000129307
1019.4      0.000166304
1019.6      0.000167076
1019.8      0.000203486
1020.0      0.000141228
1020.2      0.000172306
1020.4      0.00020338
1020.6      0.000164969
1020.8      0.000115785
1021.0      0.00015235
1021.2      0.000146694
1021.4      0.00018981
1021.6      0.000140194
1021.8      0.000114495
1022.0      0.000164177
1022.2      0.000170321
1022.4      0.000194347
1022.6      0.000195366
1022.8      0.000231355
1023.0      0.000162156
1023.2      6.39E-05
1023.4      0.00011937
1023.6      0.000132374
1023.8      0.000155816
1024.0      0.000175671
1024.2      0.000203544
1024.4      0.000227771
1024.6      0.000246416
1024.8      0.000117383
1025.0      0.00022148
1025.2      8.78E-05
1025.4      0.000124556
1025.6      0.000209442
1025.8      0.000195681
1026.0      0.000141834
1026.2      0.000141739
1026.4      0.000213597
1026.6      0.000182769
1026.8      0.000194936
1027.0      0.000199983
1027.2      0.000181574
1027.4      0.000116581
1027.6      0.000216881
1027.8      0.000181924
1028.0      0.000227448
1028.2      0.000210734
1028.4      0.000204217
1028.6      0.000244859
1028.8      0.000209653
1029.0      0.000140459
1029.2      0.000174531
1029.4      0.000168327
1029.6      0.000143693
1029.8      0.00015549
1030.0      0.000243737
1030.2      0.000162442
1030.4      0.000237615
1030.6      0.000236747
1030.8      0.000130918
1031.0      0.000160503
1031.2      0.000182858
1031.4      0.000189577
1031.6      0.000177676
1031.8      0.00026423
1032.0      0.000182563
1032.2      0.000233806
1032.4      0.000188212
1032.6      0.000246002
1032.8      0.000209981
1033.0      0.000227218
1033.2      0.000198799
1033.4      0.000153095
1033.6      0.000146379
1033.8      0.000169221
1034.0      0.000234752
1034.2      0.000288597
1034.4      0.000266883
1034.6      0.000329565
1034.8      0.000220712
1035.0      0.000128367
1035.2      0.000151013
1035.4      0.000200234
1035.6      0.000366717
1035.8      0.000299273
1036.0      0.000151504
1036.2      0.000172248
1036.4      0.000217601
1036.6      0.000235392
1036.8      0.000285076
1037.0      0.000234818
1037.2      0.000268668
1037.4      0.000212556
1037.6      0.000244254
1037.8      0.000249645
1038.0      0.000299099
1038.2      0.00029899
1038.4      0.000232706
1038.6      0.000294729
1038.8      0.000243717
1039.0      0.000242622
1039.2      0.000258628
1039.4      0.000319741
1039.6      0.000265197
1039.8      0.000243404
1040.0      0.000103315
1040.2      0.000109443
1040.4      0.000203932
1040.6      0.000214836
1040.8      0.000302404
1041.0      0.000283186
1041.2      0.000196316
1041.4      0.000235443
1041.6      0.000229229
1041.8      0.000235279
1042.0      0.000274738
1042.2      0.00019031
1042.4      0.000243409
1042.6      0.000242961
1042.8      0.000195831
1043.0      0.000272577
1043.2      0.000206623
1043.4      0.000302679
1043.6      0.000274949
1043.8      0.000319808
1044.0      0.000292629
1044.2      0.000237314
1044.4      0.000311694
1044.6      0.000298444
1044.8      0.000270307
1045.0      0.000270922
1045.2      0.000267207
1045.4      0.000353943
1045.6      0.000332732
1045.8      0.000332778
1046.0      0.000242476
1046.2      0.000275468
1046.4      0.000329401
1046.6      0.000325867
1046.8      0.000319645
1047.0      0.000340558
1047.2      0.000324434
1047.4      0.000310768
1047.6      0.000347234
1047.8      0.00029879
1048.0      0.000425645
1048.2      0.000387369
1048.4      0.000391247
1048.6      0.000306998
1048.8      0.000392715
1049.0      0.000380108
1049.2      0.000363694
1049.4      0.000333061
1049.6      0.000362332
1049.8      0.000365691
1050.0      0.000379416
1050.2      0.000351223
1050.4      0.000303601
1050.6      0.000395989
1050.8      0.000382401
1051.0      0.000322287
1051.2      0.000378352
1051.4      0.000355258
1051.6      0.000345331
1051.8      0.000365128
1052.0      0.000371682
1052.2      0.0003969
1052.4      0.000395866
1052.6      0.000339652
1052.8      0.000350468
1053.0      0.00041722
1053.2      0.000383286
1053.4      0.000464015
1053.6      0.000418317
1053.8      0.000424936
1054.0      0.000321624
1054.2      0.000420824
1054.4      0.000358254
1054.6      0.000383156
1054.8      0.000496232
1055.0      0.000480381
1055.2      0.000368023
1055.4      0.00033661
1055.6      0.00033524
1055.8      0.00043457
1056.0      0.0004059
1056.2      0.000524163
1056.4      0.000385377
1056.6      0.000427768
1056.8      0.000384337
1057.0      0.000419419
1057.2      0.00042575
1057.4      0.000393718
1057.6      0.000414954
1057.8      0.000420567
1058.0      0.000403062
1058.2      0.000461909
1058.4      0.000491485
1058.6      0.000458986
1058.8      0.000441983
1059.0      0.000467053
1059.2      0.000473256
1059.4      0.000442465
1059.6      0.000446537
1059.8      0.000521351
1060.0      0.000480265
1060.2      0.000442089
1060.4      0.000497944
1060.6      0.000435648
1060.8      0.000462013
1061.0      0.000489621
1061.2      0.000476252
1061.4      0.000456015
1061.6      0.000566651
1061.8      0.000477164
1062.0      0.000539834
1062.2      0.000511364
1062.4      0.000449973
1062.6      0.000520743
1062.8      0.000541903
1063.0      0.000515522
1063.2      0.000589349
1063.4      0.000533146
1063.6      0.000528953
1063.8      0.000591681
1064.0      0.000604388
1064.2      0.000559588
1064.4      0.000424002
1064.6      0.000481744
1064.8      0.000531544
1065.0      0.000438668
1065.2      0.000577398
1065.4      0.000538805
1065.6      0.000576028
1065.8      0.000588855
1066.0      0.000592743
1066.2      0.000523565
1066.4      0.000535754
1066.6      0.000598787
1066.8      0.000550504
1067.0      0.000571622
1067.2      0.000563389
1067.4      0.000532485
1067.6      0.000539549
1067.8      0.000557836
1068.0      0.000663222
1068.2      0.000692191
1068.4      0.000587516
1068.6      0.000596393
1068.8      0.000590608
1069.0      0.000555031
1069.2      0.000617383
1069.4      0.000588582
1069.6      0.000573931
1069.8      0.000612916
1070.0      0.000577243
1070.2      0.00056012
1070.4      0.000572751
1070.6      0.000641734
1070.8      0.000696453
1071.0      0.000594239
1071.2      0.000667907
1071.4      0.000691463
1071.6      0.000660637
1071.8      0.000716728
1072.0      0.000680999
1072.2      0.000714805
1072.4      0.000608383
1072.6      0.000703686
1072.8      0.00065227
1073.0      0.000610206
1073.2      0.000702821
1073.4      0.00062941
1073.6      0.000644985
1073.8      0.000737344
1074.0      0.000787889
1074.2      0.000758039
1074.4      0.000749303
1074.6      0.000658936
1074.8      0.000617884
1075.0      0.000745248
1075.2      0.000697042
1075.4      0.000800451
1075.6      0.000788431
1075.8      0.000779248
1076.0      0.000683547
1076.2      0.000712938
1076.4      0.000701815
1076.6      0.000785931
1076.8      0.000847623
1077.0      0.000757722
1077.2      0.000737828
1077.4      0.000846589
1077.6      0.000804888
1077.8      0.00081802
1078.0      0.000785012
1078.2      0.000790578
1078.4      0.000809685
1078.6      0.000783348
1078.8      0.000805625
1079.0      0.000836769
1079.2      0.000957366
1079.4      0.000880833
1079.6      0.000807415
1079.8      0.00075229
1080.0      0.000864215
1080.2      0.000792742
1080.4      0.000855115
1080.6      0.000895139
1080.8      0.000857332
1081.0      0.000920035
1081.2      0.000907229
1081.4      0.000820239
1081.6      0.000810165
1081.8      0.00085327
1082.0      0.00091279
1082.2      0.000857064
1082.4      0.001010632
1082.6      0.000824669
1082.8      0.000867849
1083.0      0.000929807
1083.2      0.000901215
1083.4      0.000921166
1083.6      0.000932066
1083.8      0.000929811
1084.0      0.000934475
1084.2      0.000910658
1084.4      0.000980547
1084.6      0.001067334
1084.8      0.000930161
1085.0      0.00097586
1085.2      0.00094262
1085.4      0.000920806
1085.6      0.000915794
1085.8      0.00106551
1086.0      0.001046108
1086.2      0.001078951
1086.4      0.000941094
1086.6      0.000982038
1086.8      0.001010419
1087.0      0.000970397
1087.2      0.00106631
1087.4      0.001025818
1087.6      0.001057702
1087.8      0.00103106
1088.0      0.001094356
1088.2      0.001098574
1088.4      0.001131197
1088.6      0.001095237
1088.8      0.001074831
1089.0      0.001071896
1089.2      0.001074228
1089.4      0.001115775
1089.6      0.001202225
1089.8      0.001167759
1090.0      0.001176839
1090.2      0.001108115
1090.4      0.001114729
1090.6      0.001092417
1090.8      0.001108162
1091.0      0.001150053
1091.2      0.001166009
1091.4      0.001153898
1091.6      0.00120877
1091.8      0.001235345
1092.0      0.00119755
1092.2      0.001229827
1092.4      0.001122408
1092.6      0.001222732
1092.8      0.001246706
1093.0      0.001241336
1093.2      0.001247108
1093.4      0.001237007
1093.6      0.001250294
1093.8      0.001205634
1094.0      0.001259993
1094.2      0.001269391
1094.4      0.001343331
1094.6      0.001319495
1094.8      0.001354313
1095.0      0.001317225
1095.2      0.001353681
1095.4      0.001418726
1095.6      0.001351627
1095.8      0.001336214
1096.0      0.001347026
1096.2      0.001385209
1096.4      0.00130768
1096.6      0.001365361
1096.8      0.001431656
1097.0      0.001486253
1097.2      0.001423748
1097.4      0.001458028
1097.6      0.001397669
1097.8      0.001464728
1098.0      0.001506582
1098.2      0.00139006
1098.4      0.001471569
1098.6      0.001451946
1098.8      0.001505631
1099.0      0.001536758
1099.2      0.001499368
1099.4      0.001536057
1099.6      0.001514616
1099.8      0.001600244
1100.0      0.001593215
